Data from Subt16__5__14-45-45-595.txt Node

Date: Wed Oct 20 14:45:45 CEST 2021
User: Praktikum
Spectrometer: USB4F03543
Trigger mode: 4
Integration Time (sec): 1,000000E-1
Scans to average: 1
Electric dark correction enabled: true
Nonlinearity correction enabled: false
Boxcar width: 0
XAxis mode: Wavelengths
Number of Pixels in Spectrum: 3648
>>>>>Begin Spectral Data<<<<<
179,969	10,92
180,181	10,92
180,394	10,92
180,606	-25,94
180,819	23,21
181,031	0,68
181,243	0,68
181,456	51,88
181,668	41,64
181,88	-11,61
182,093	-44,37
182,305	60,07
182,518	-71
182,73	-9,56
182,942	10,92
183,155	39,59
183,367	-68,95
183,579	37,55
183,791	-38,23
184,004	10,92
184,216	113,32
184,428	154,28
184,641	43,69
184,853	-5,46
185,065	62,12
185,277	23,21
185,49	-30,04
185,702	-50,52
185,914	10,92
186,126	-56,66
186,338	-11,61
186,551	33,45
186,763	27,31
186,975	6,83
187,187	107,18
187,399	47,79
187,612	45,74
187,824	39,59
188,036	58,03
188,248	43,69
188,46	-15,7
188,672	-9,56
188,885	23,21
189,097	-34,13
189,309	53,93
189,521	68,27
189,733	33,45
189,945	74,41
190,157	80,55
190,369	-93,52
190,581	23,21
190,794	-62,8
191,006	88,75
191,218	4,78
191,43	23,21
191,642	31,4
191,854	-85,33
192,066	8,87
192,278	39,59
192,49	-9,56
192,702	37,55
192,914	21,16
193,126	-1,37
193,338	37,55
193,55	41,64
193,762	-9,56
193,974	-21,85
194,186	29,35
194,398	2,73
194,61	-105,81
194,822	-17,75
195,034	25,26
195,246	68,27
195,457	19,11
195,669	37,55
195,881	101,03
196,093	-107,86
196,305	53,93
196,517	82,6
196,729	-44,37
196,941	27,31
197,153	37,55
197,365	45,74
197,576	58,03
197,788	27,31
198	-27,99
198,212	90,79
198,424	23,21
198,636	27,31
198,847	8,87
199,059	6,83
199,271	-13,65
199,483	96,94
199,695	39,59
199,906	-9,56
200,118	23,21
200,33	31,4
200,542	0,68
200,753	-32,08
200,965	15,02
201,177	84,65
201,389	39,59
201,6	43,69
201,812	27,31
202,024	-36,18
202,235	2,73
202,447	199,34
202,659	0,68
202,871	70,31
203,082	21,16
203,294	58,03
203,506	10,92
203,717	2,73
203,929	29,35
204,141	-15,7
204,352	-21,85
204,564	-60,76
204,775	58,03
204,987	60,07
205,199	-9,56
205,41	58,03
205,622	21,16
205,833	107,18
206,045	29,35
206,257	31,4
206,468	43,69
206,68	-30,04
206,891	23,21
207,103	70,31
207,314	86,7
207,526	17,07
207,737	21,16
207,949	70,31
208,16	51,88
208,372	4,78
208,583	-40,28
208,795	39,59
209,006	58,03
209,218	101,03
209,429	33,45
209,641	29,35
209,852	17,07
210,064	-60,76
210,275	86,7
210,487	72,36
210,698	109,22
210,909	-7,51
211,121	-21,85
211,332	35,5
211,544	4,78
211,755	17,07
211,966	-19,8
212,178	-3,41
212,389	49,83
212,6	-13,65
212,812	98,99
213,023	23,21
213,234	43,69
213,446	-38,23
213,657	-17,75
213,868	6,83
214,08	25,26
214,291	10,92
214,502	6,83
214,714	43,69
214,925	10,92
215,136	72,36
215,347	-75,09
215,559	-34,13
215,77	4,78
215,981	-66,9
216,192	-17,75
216,404	60,07
216,615	17,07
216,826	19,11
217,037	-11,61
217,249	84,65
217,46	8,87
217,671	17,07
217,882	84,65
218,093	123,56
218,304	94,89
218,516	-38,23
218,727	74,41
218,938	64,17
219,149	29,35
219,36	-25,94
219,571	49,83
219,782	2,73
219,993	-3,41
220,205	-89,43
220,416	25,26
220,627	-120,15
220,838	-15,7
221,049	107,18
221,26	43,69
221,471	6,83
221,682	-73,04
221,893	60,07
222,104	-32,08
222,315	37,55
222,526	45,74
222,737	-19,8
222,948	66,22
223,159	90,79
223,37	-17,75
223,581	17,07
223,792	33,45
224,003	-1,37
224,214	10,92
224,425	41,64
224,636	-1,37
224,847	-17,75
225,058	27,31
225,269	84,65
225,48	-27,99
225,691	47,79
225,902	45,74
226,112	109,22
226,323	53,93
226,534	37,55
226,745	55,98
226,956	19,11
227,167	-11,61
227,378	0,68
227,589	-25,94
227,799	55,98
228,01	8,87
228,221	96,94
228,432	-17,75
228,643	8,87
228,853	78,51
229,064	49,83
229,275	-38,23
229,486	-1,37
229,697	10,92
229,907	-60,76
230,118	-25,94
230,329	-66,9
230,54	35,5
230,75	-9,56
230,961	43,69
231,172	-36,18
231,383	55,98
231,593	-142,68
231,804	15,02
232,015	10,92
232,225	80,55
232,436	-3,41
232,647	19,11
232,857	62,12
233,068	109,22
233,279	66,22
233,489	58,03
233,7	68,27
233,91	15,02
234,121	-89,43
234,332	21,16
234,542	-60,76
234,753	-36,18
234,964	-79,19
235,174	4,78
235,385	96,94
235,595	27,31
235,806	-56,66
236,016	4,78
236,227	21,16
236,437	41,64
236,648	111,27
236,858	158,38
237,069	27,31
237,279	-7,51
237,49	25,26
237,7	23,21
237,911	111,27
238,121	25,26
238,332	45,74
238,542	47,79
238,753	-48,47
238,963	45,74
239,174	43,69
239,384	64,17
239,595	82,6
239,805	-1,37
240,015	17,07
240,226	62,12
240,436	31,4
240,647	58,03
240,857	21,16
241,067	29,35
241,278	2,73
241,488	-34,13
241,698	19,11
241,909	-15,7
242,119	0,68
242,329	17,07
242,54	-38,23
242,75	17,07
242,96	84,65
243,171	31,4
243,381	107,18
243,591	-9,56
243,801	19,11
244,012	35,5
244,222	84,65
244,432	-34,13
244,642	8,87
244,853	33,45
245,063	27,31
245,273	29,35
245,483	17,07
245,694	60,07
245,904	43,69
246,114	82,6
246,324	-5,46
246,534	60,07
246,744	-11,61
246,955	133,8
247,165	55,98
247,375	2,73
247,585	15,02
247,795	-30,04
248,005	86,7
248,215	94,89
248,425	41,64
248,636	66,22
248,846	55,98
249,056	31,4
249,266	-9,56
249,476	39,59
249,686	0,68
249,896	53,93
250,106	17,07
250,316	-23,89
250,526	25,26
250,736	-21,85
250,946	64,17
251,156	-44,37
251,366	19,11
251,576	10,92
251,786	66,22
251,996	68,27
252,206	2,73
252,416	15,02
252,626	-46,42
252,836	47,79
253,046	47,79
253,256	82,6
253,466	41,64
253,676	-25,94
253,885	37,55
254,095	27,31
254,305	21,16
254,515	76,46
254,725	92,84
254,935	68,27
255,145	-64,85
255,355	64,17
255,564	2,73
255,774	-87,38
255,984	-34,13
256,194	88,75
256,404	33,45
256,614	-71
256,823	27,31
257,033	27,31
257,243	2,73
257,453	27,31
257,662	-7,51
257,872	66,22
258,082	107,18
258,292	-58,71
258,501	66,22
258,711	12,97
258,921	-27,99
259,131	-21,85
259,34	51,88
259,55	-15,7
259,76	-75,09
259,969	-19,8
260,179	-17,75
260,389	-1,37
260,598	-9,56
260,808	55,98
261,018	66,22
261,227	6,83
261,437	123,56
261,647	58,03
261,856	37,55
262,066	-23,89
262,275	-9,56
262,485	19,11
262,694	133,8
262,904	58,03
263,114	-54,61
263,323	15,02
263,533	55,98
263,742	-85,33
263,952	-1,37
264,161	27,31
264,371	0,68
264,58	80,55
264,79	86,7
264,999	0,68
265,209	-32,08
265,418	-81,24
265,628	-13,65
265,837	53,93
266,047	10,92
266,256	-68,95
266,466	72,36
266,675	68,27
266,884	-44,37
267,094	15,02
267,303	27,31
267,513	58,03
267,722	96,94
267,931	23,21
268,141	68,27
268,35	-13,65
268,559	-46,42
268,769	15,02
268,978	-13,65
269,187	-25,94
269,397	62,12
269,606	6,83
269,815	47,79
270,025	-13,65
270,234	27,31
270,443	35,5
270,653	-21,85
270,862	8,87
271,071	88,75
271,28	37,55
271,49	23,21
271,699	68,27
271,908	-52,56
272,117	4,78
272,327	41,64
272,536	27,31
272,745	-99,67
272,954	92,84
273,163	80,55
273,372	-48,47
273,582	74,41
273,791	-9,56
274	-1,37
274,209	-27,99
274,418	90,79
274,627	115,37
274,836	43,69
275,046	80,55
275,255	-34,13
275,464	-9,56
275,673	27,31
275,882	-38,23
276,091	-79,19
276,3	80,55
276,509	68,27
276,718	-52,56
276,927	19,11
277,136	49,83
277,345	15,02
277,554	23,21
277,763	98,99
277,972	41,64
278,181	-23,89
278,39	12,97
278,599	68,27
278,808	58,03
279,017	-52,56
279,226	43,69
279,435	64,17
279,644	17,07
279,853	15,02
280,062	-89,43
280,271	19,11
280,48	47,79
280,688	23,21
280,897	25,26
281,106	-21,85
281,315	-25,94
281,524	-7,51
281,733	92,84
281,942	88,75
282,151	-64,85
282,359	15,02
282,568	-27,99
282,777	111,27
282,986	35,5
283,195	33,45
283,403	-27,99
283,612	27,31
283,821	0,68
284,03	-21,85
284,238	29,35
284,447	92,84
284,656	88,75
284,865	68,27
285,073	62,12
285,282	68,27
285,491	-19,8
285,699	4,78
285,908	92,84
286,117	96,94
286,325	15,02
286,534	47,79
286,743	164,52
286,951	-52,56
287,16	-25,94
287,369	37,55
287,577	72,36
287,786	82,6
287,995	103,08
288,203	72,36
288,412	-3,41
288,62	86,7
288,829	72,36
289,037	66,22
289,246	66,22
289,455	-5,46
289,663	15,02
289,872	21,16
290,08	-50,52
290,289	-21,85
290,497	-3,41
290,706	-34,13
290,914	-23,89
291,123	53,93
291,331	92,84
291,54	21,16
291,748	96,94
291,957	176,81
292,165	27,31
292,373	37,55
292,582	-13,65
292,79	47,79
292,999	-9,56
293,207	60,07
293,415	53,93
293,624	-32,08
293,832	64,17
294,041	66,22
294,249	31,4
294,457	29,35
294,666	-81,24
294,874	-7,51
295,082	-56,66
295,291	-1,37
295,499	-79,19
295,707	27,31
295,915	96,94
296,124	125,61
296,332	121,51
296,54	-27,99
296,749	101,03
296,957	92,84
297,165	74,41
297,373	4,78
297,581	41,64
297,79	64,17
297,998	117,42
298,206	86,7
298,414	72,36
298,622	37,55
298,831	12,97
299,039	39,59
299,247	12,97
299,455	49,83
299,663	84,65
299,871	23,21
300,08	72,36
300,288	103,08
300,496	-9,56
300,704	80,55
300,912	-15,7
301,12	72,36
301,328	-5,46
301,536	33,45
301,744	-9,56
301,952	47,79
302,16	51,88
302,368	35,5
302,576	21,16
302,784	31,4
302,992	70,31
303,2	82,6
303,408	62,12
303,616	70,31
303,824	-44,37
304,032	35,5
304,24	58,03
304,448	41,64
304,656	8,87
304,864	68,27
305,072	129,7
305,28	-89,43
305,488	-25,94
305,696	33,45
305,904	2,73
306,111	15,02
306,319	47,79
306,527	-46,42
306,735	64,17
306,943	45,74
307,151	8,87
307,359	-50,52
307,566	39,59
307,774	64,17
307,982	55,98
308,19	-71
308,398	-83,28
308,605	17,07
308,813	25,26
309,021	23,21
309,229	4,78
309,436	43,69
309,644	-64,85
309,852	86,7
310,06	-27,99
310,267	-38,23
310,475	96,94
310,683	88,75
310,89	76,46
311,098	64,17
311,306	21,16
311,513	-7,51
311,721	-3,41
311,929	-5,46
312,136	-11,61
312,344	-44,37
312,552	49,83
312,759	-52,56
312,967	-27,99
313,174	-34,13
313,382	-19,8
313,589	-17,75
313,797	-36,18
314,005	123,56
314,212	-17,75
314,42	23,21
314,627	49,83
314,835	141,99
315,042	-54,61
315,25	-1,37
315,457	-60,76
315,665	-3,41
315,872	66,22
316,08	15,02
316,287	2,73
316,495	-21,85
316,702	33,45
316,909	-62,8
317,117	68,27
317,324	4,78
317,532	23,21
317,739	-13,65
317,946	19,11
318,154	29,35
318,361	27,31
318,569	8,87
318,776	82,6
318,983	-79,19
319,191	-54,61
319,398	37,55
319,605	60,07
319,813	2,73
320,02	-56,66
320,227	-13,65
320,434	23,21
320,642	80,55
320,849	-27,99
321,056	55,98
321,264	72,36
321,471	15,02
321,678	31,4
321,885	82,6
322,092	12,97
322,3	-79,19
322,507	53,93
322,714	-25,94
322,921	10,92
323,128	43,69
323,336	-3,41
323,543	131,75
323,75	158,38
323,957	-7,51
324,164	74,41
324,371	60,07
324,578	133,8
324,786	78,51
324,993	-38,23
325,2	86,7
325,407	82,6
325,614	113,32
325,821	39,59
326,028	-17,75
326,235	98,99
326,442	47,79
326,649	109,22
326,856	158,38
327,063	133,8
327,27	98,99
327,477	111,27
327,684	80,55
327,891	185
328,098	84,65
328,305	109,22
328,512	187,05
328,719	88,75
328,926	154,28
329,133	113,32
329,34	185
329,546	213,67
329,753	201,38
329,96	158,38
330,167	285,35
330,374	174,76
330,581	160,42
330,788	295,59
330,995	215,72
331,201	185
331,408	285,35
331,615	246,44
331,822	209,58
332,029	311,97
332,235	268,97
332,442	281,25
332,649	232,1
332,856	314,02
333,062	262,82
333,269	320,17
333,476	307,88
333,683	471,72
333,889	365,22
334,096	410,28
334,303	443,04
334,509	451,24
334,716	414,37
334,923	547,49
335,129	443,04
335,336	486,05
335,543	430,76
335,749	436,9
335,956	445,09
336,163	533,15
336,369	498,34
336,576	537,25
336,782	514,72
336,989	455,33
337,196	494,24
337,402	514,72
337,609	643,74
337,815	731,81
338,022	664,22
338,228	768,67
338,435	649,89
338,641	778,91
338,848	754,34
339,054	727,71
339,261	834,21
339,467	823,97
339,674	799,39
339,88	920,22
340,087	928,41
340,293	1032,86
340,5	866,97
340,706	971,42
340,912	955,04
341,119	922,27
341,325	1063,58
341,532	1112,73
341,738	1127,07
341,944	1206,94
342,151	1122,97
342,357	1217,18
342,563	1063,58
342,77	1206,94
342,976	1045,15
343,182	1237,66
343,389	1127,07
343,595	1168,02
343,801	1129,11
344,007	1047,19
344,214	1112,73
344,42	1227,42
344,626	1219,22
344,832	1182,36
345,039	1342,1
345,245	1481,36
345,451	1448,6
345,657	1467,03
345,864	1428,12
346,07	1516,18
346,276	1495,7
346,482	1626,77
346,688	1602,19
346,894	1600,15
347,1	1628,82
347,307	1587,86
347,513	1637,01
347,719	1720,98
347,925	1702,54
348,131	1823,37
348,337	1835,66
348,543	1796,75
348,749	1780,37
348,955	1960,59
349,161	1809,04
349,367	1833,61
349,573	1876,62
349,779	2149
349,985	2132,62
350,191	2329,22
350,397	2151,05
350,603	2368,13
350,809	2243,21
351,015	2411,14
351,221	2259,59
351,427	2329,22
351,633	2271,88
351,839	2300,55
352,045	2435,72
352,251	2357,89
352,457	2212,49
352,663	2400,9
352,869	2423,43
353,075	2681,47
353,28	2521,73
353,486	2867,84
353,692	2865,79
353,898	2910,85
354,104	2892,41
354,31	3089,02
354,515	3054,2
354,721	3105,4
354,927	3043,96
355,133	3193,47
355,339	3021,44
355,544	3023,48
355,75	2960
355,956	2894,46
356,162	2751,1
356,367	2792,06
356,573	2599,55
356,779	2683,52
356,984	2452,1
357,19	2632,32
357,396	2415,24
357,602	2493,06
357,807	2419,33
358,013	2691,71
358,218	2368,13
358,424	2574,98
358,63	2751,1
358,835	2976,38
359,041	3060,35
359,247	3279,48
359,452	3443,32
359,658	3631,73
359,863	3564,15
360,069	3469,94
360,274	3492,47
360,48	3541,62
360,685	3213,95
360,891	3408,5
361,097	3359,35
361,302	3555,96
361,508	3662,45
361,713	3424,89
361,918	3566,2
362,124	3777,14
362,329	3799,66
362,535	3906,16
362,74	3910,25
362,946	3932,78
363,151	4016,75
363,357	4129,39
363,562	4043,37
363,767	4192,87
363,973	4418,15
364,178	4211,31
364,383	4444,77
364,589	4409,96
364,794	4467,3
365	4741,73
365,205	5149,28
365,41	5036,64
365,615	5294,68
365,821	5352,02
366,026	5243,48
366,231	5294,68
366,437	5384,79
366,642	5442,14
366,847	5200,48
367,052	5405,27
367,258	5468,76
367,463	5526,1
367,668	5214,81
367,873	5386,84
368,078	5098,08
368,284	5253,72
368,489	5212,76
368,694	5472,86
368,899	5622,36
369,104	5718,61
369,309	5771,86
369,515	5882,45
369,72	5812,82
369,925	5780,05
370,13	5657,17
370,335	5546,58
370,54	5632,6
370,745	5859,92
370,95	5585,49
371,155	5792,34
371,36	5610,07
371,565	5618,26
371,77	5442,14
371,975	5237,34
372,18	5048,93
372,385	5155,42
372,59	5143,13
372,795	5048,93
373	4758,11
373,205	4700,77
373,41	4633,19
373,615	4745,83
373,82	4565,6
374,025	4674,15
374,23	4645,48
374,435	4760,16
374,64	4803,17
374,845	4893,28
375,05	5110,36
375,254	5343,83
375,459	5571,16
375,664	5558,87
375,869	5366,36
376,074	5448,28
376,279	5538,39
376,483	5929,55
376,688	5937,74
376,893	6058,57
377,098	6285,9
377,303	6582,85
377,507	6683,2
377,712	7039,55
377,917	6679,11
378,122	6646,34
378,326	6478,41
378,531	6120,01
378,736	5945,94
378,94	5878,35
379,145	5800,53
379,35	5722,71
379,554	5597,78
379,759	5778
379,964	5761,62
380,168	6025,81
380,373	6021,71
380,578	6136,4
380,782	5861,97
380,987	5884,5
381,191	5417,56
381,396	5120,6
381,601	4858,46
381,805	5028,45
382,01	4434,53
382,214	4209,26
382,419	4133,48
382,623	3951,21
382,828	3732,08
383,032	3988,08
383,237	3902,06
383,441	4153,96
383,646	4250,22
383,85	4661,86
384,055	4921,95
384,259	5024,35
384,464	5390,94
384,668	5286,49
384,872	5366,36
385,077	5266,01
385,281	5317,21
385,486	5251,67
385,69	5206,62
385,894	5401,18
386,099	5435,99
386,303	5464,66
386,507	5653,08
386,712	5605,97
386,916	5565,01
387,12	5483,09
387,325	5548,63
387,529	5567,06
387,733	5464,66
387,937	5859,92
388,142	5565,01
388,346	5888,59
388,55	5737,04
388,754	6429,26
388,959	6300,23
389,163	6693,44
389,367	6941,25
389,571	6924,86
389,775	6908,48
389,98	7236,16
390,184	6912,58
390,388	7645,75
390,592	7170,62
390,796	7522,87
391	7541,3
391,204	7496,25
391,409	7221,82
391,613	7008,83
391,817	6664,77
392,021	6158,92
392,225	5642,84
392,429	5075,55
392,633	4569,7
392,837	4223,59
393,041	4078,19
393,245	4213,35
393,449	4330,09
393,653	4850,27
393,857	5313,11
394,061	6124,11
394,265	6437,45
394,469	6988,35
394,673	7141,95
394,877	7379,51
395,081	7731,76
395,285	7389,75
395,489	6752,84
395,693	6697,54
395,896	6048,33
396,1	5562,97
396,304	5333,59
396,508	5030,49
396,712	5311,07
396,916	5612,12
397,12	6181,45
397,323	6816,32
397,527	7752,24
397,731	8286,76
397,935	8622,63
398,139	9284,12
398,342	9751,06
398,546	9742,87
398,75	9908,76
398,954	10269,2
399,157	9898,52
399,361	10129,94
399,565	10299,92
399,769	10267,15
399,972	10465,8
400,176	10721,8
400,38	10791,43
400,583	10766,85
400,787	11160,06
400,991	10816,01
401,194	11110,91
401,398	11510,27
401,601	11194,88
401,805	11104,77
402,009	11504,12
402,212	10961,41
402,416	11100,67
402,619	11368,96
402,823	11129,34
403,026	11006,47
403,23	10904,07
403,433	11012,61
403,637	10988,03
403,841	10916,36
404,044	11174,4
404,247	11311,61
404,451	11006,47
404,654	11072
404,858	11233,79
405,061	11037,19
405,265	11082,24
405,468	11334,14
405,672	10467,85
405,875	10402,32
406,078	10893,83
406,282	10930,69
406,485	10643,98
406,689	11143,68
406,892	11311,61
407,095	10844,68
407,299	11084,29
407,502	11280,89
407,705	11416,06
407,909	11823,61
408,112	12102,13
408,315	12476,91
408,518	12141,04
408,722	11878,9
408,925	11721,21
409,128	11794,93
409,331	11610,62
409,535	11489,79
409,738	11241,98
409,941	10979,84
410,144	11096,58
410,347	11887,09
410,551	11561,47
410,754	11923,96
410,957	12372,46
411,16	12501,48
411,363	12603,88
411,566	13036
411,769	12939,75
411,973	12722,66
412,176	12644,84
412,379	13062,63
412,582	12915,17
412,785	12595,69
412,988	13093,35
413,191	12327,41
413,394	12464,62
413,597	12708,33
413,8	12902,89
414,003	13064,68
414,206	12667,37
414,409	13175,27
414,612	12503,53
414,815	12888,55
415,018	12614,12
415,221	12753,38
415,424	12751,34
415,627	12956,13
415,83	12823,01
416,033	12780,01
416,235	13367,77
416,438	13210,08
416,641	12868,07
416,844	12595,69
417,047	12519,92
417,25	12126,71
417,453	12440,04
417,655	12083,7
417,858	12581,35
418,061	12372,46
418,264	12130,8
418,467	12614,12
418,669	12591,59
418,872	12485,1
419,075	12425,71
419,278	12202,48
419,48	12454,38
419,683	12687,85
419,886	12464,62
420,089	13367,77
420,291	12532,2
420,494	13402,59
420,697	12900,84
420,899	13111,78
421,102	12534,25
421,305	13044,2
421,507	12714,47
421,71	12712,42
421,912	12526,06
422,115	12624,36
422,318	12153,33
422,52	12243,44
422,723	12497,39
422,925	12722,66
423,128	12317,17
423,33	12143,09
423,533	12186,1
423,735	12712,42
423,938	12687,85
424,14	12685,8
424,343	12380,65
424,545	12876,26
424,748	12055,03
424,95	12380,65
425,153	12773,86
425,355	12409,33
425,558	12923,37
425,76	12229,1
425,962	12319,21
426,165	11954,68
426,367	12866,02
426,57	12861,93
426,772	12212,72
426,974	12317,17
427,177	11966,96
427,379	12282,35
427,581	12374,51
427,784	12722,66
427,986	11678,2
428,188	12155,38
428,39	12638,7
428,593	11506,17
428,795	11952,63
428,997	11559,42
429,2	10643,98
429,402	10584,59
429,604	10551,82
429,806	9763,35
430,008	9761,3
430,211	9818,64
430,413	9959,95
430,615	10611,21
430,817	11788,79
431,019	12497,39
431,221	12685,8
431,423	12685,8
431,626	12859,88
431,828	13072,87
432,03	13038,05
432,232	13062,63
432,434	13627,87
432,636	13916,63
432,838	13459,93
433,04	13339,1
433,242	13470,17
433,444	12433,9
433,646	13062,63
433,848	13476,32
434,05	13441,5
434,252	13412,83
434,454	13795,8
434,656	14268,88
434,858	14385,62
435,06	14451,15
435,262	14412,24
435,464	15313,34
435,666	15288,77
435,868	14500,3
436,07	15335,87
436,271	15782,33
436,473	14895,56
436,675	15004,1
436,877	14389,71
437,079	13994,45
437,281	14264,78
437,482	14324,18
437,684	14326,22
437,886	13711,83
438,088	13595,1
438,29	13535,71
438,491	13857,24
438,693	14191,06
438,895	14494,16
439,097	15413,7
439,298	14721,48
439,5	14541,26
439,702	14467,53
439,903	14223,83
440,105	15200,71
440,307	15608,25
440,508	15610,3
440,71	16122,29
440,912	15299,01
441,113	15528,38
441,315	15847,86
441,517	16165,3
441,718	16255,41
441,92	16138,68
442,121	15714,75
442,323	16568,75
442,524	16064,95
442,726	16105,91
442,928	16110
443,129	16454,06
443,331	15223,23
443,532	16060,85
443,734	16535,98
443,935	16753,07
444,136	15329,73
444,338	16468,4
444,539	15993,27
444,741	15901,11
444,942	15342,02
445,144	15767,99
445,345	15499,71
445,546	16015,8
445,748	15143,36
445,949	15204,8
446,151	15753,66
446,352	16363,95
446,553	16269,75
446,755	16017,85
446,956	17236,39
447,157	16974,25
447,359	16900,52
447,56	16626,09
447,761	16900,52
447,962	16916,9
448,164	17303,97
448,365	16277,94
448,566	16945,58
448,767	16634,28
448,969	17437,09
449,17	16767,4
449,371	17002,92
449,572	17265,06
449,773	17488,29
449,974	17861,02
450,176	17682,84
450,377	18665,87
450,578	18028,95
450,779	17224,1
450,98	16540,08
451,181	17193,38
451,382	16732,59
451,583	17248,68
451,784	16411,06
451,986	17832,35
452,187	16193,97
452,388	16077,24
452,589	15286,72
452,79	16507,31
452,991	15915,45
453,192	16843,18
453,393	16818,6
453,594	17856,92
453,795	16619,95
453,995	16552,37
454,196	16472,5
454,397	17011,11
454,598	16505,26
454,799	17422,75
455	17217,96
455,201	17281,44
455,402	17416,61
455,603	17146,28
455,804	18387,35
456,004	18680,21
456,205	17379,75
456,406	17455,52
456,607	17815,96
456,808	17957,27
457,008	17568,16
457,209	17105,32
457,41	18823,56
457,611	17269,16
457,811	17883,55
458,012	17846,68
458,213	18190,74
458,414	17447,33
458,614	17725,85
458,815	17861,02
459,016	17783,2
459,216	18080,15
459,417	18342,29
459,618	18170,26
459,818	18528,66
460,019	18274,71
460,22	18538,9
460,42	18975,11
460,621	18149,78
460,821	18715,02
461,022	18981,26
461,223	18293,14
461,423	19087,75
461,624	19120,52
461,824	19634,56
462,025	18553,23
462,225	19329,41
462,426	20271,48
462,626	19507,58
462,827	19327,36
463,027	19333,51
463,228	19423,62
463,428	18854,28
463,628	19171,72
463,829	19609,98
464,029	18882,95
464,23	19806,59
464,43	19014,02
464,63	19186,05
464,831	19724,67
465,031	19771,77
465,231	20070,78
465,432	19974,52
465,632	19771,77
465,832	18708,88
466,033	20181,37
466,233	19665,28
466,433	19257,73
466,634	20181,37
466,834	20736,37
467,034	20040,06
467,234	21092,71
467,435	20765,04
467,635	21303,65
467,835	19812,73
468,035	20945,26
468,235	20599,15
468,436	20959,59
468,636	20732,27
468,836	20908,4
469,036	21578,08
469,236	20683,12
469,436	20455,79
469,636	20984,17
469,836	20904,3
470,037	21170,54
470,237	20885,87
470,437	21541,22
470,637	21141,86
470,837	21821,79
471,037	22458,71
471,237	23224,65
471,437	23112,01
471,637	23372,1
471,837	23976,25
472,037	23286,09
472,237	23054,67
472,437	23820,61
472,637	24011,07
472,837	23583,04
473,036	23103,82
473,236	24156,47
473,436	23589,19
473,636	24443,19
473,836	24205,63
474,036	25022,76
474,236	25391,4
474,436	25430,31
474,635	25334,06
474,835	25213,23
475,035	26378,52
475,235	26913,04
475,435	25901,34
475,634	25760,03
475,834	26730,77
476,034	26442,01
476,234	26904,85
476,433	27068,69
476,633	27212,04
476,833	28076,29
477,033	28205,31
477,232	29243,63
477,432	28123,39
477,632	28993,78
477,831	28469,5
478,031	28619
478,231	29214,96
478,43	29526,25
478,63	29948,13
478,829	29720,81
479,029	30531,8
479,229	31271,12
479,428	31088,85
479,628	31375,56
479,827	30935,25
480,027	31695,05
480,226	31434,96
480,426	32628,92
480,625	31615,18
480,825	33437,87
481,024	32999,6
481,224	33747,11
481,423	33386,67
481,623	33487,02
481,822	33792,17
482,021	33900,71
482,221	34265,25
482,42	33894,57
482,62	34136,23
482,819	34154,66
483,018	34447,52
483,218	33937,57
483,417	34427,04
483,616	34207,9
483,816	34136,23
484,015	34474,14
484,214	34109,6
484,414	34107,55
484,613	32829,62
484,812	32600,25
485,011	32028,87
485,211	30554,33
485,41	30697,69
485,609	30900,44
485,808	30658,77
486,008	32086,21
486,207	31887,56
486,406	32307,39
486,605	32596,15
486,804	34183,33
487,003	34293,92
487,203	35352,72
487,402	35127,44
487,601	35991,69
487,8	35342,48
487,999	35356,82
488,198	35414,16
488,397	36184,19
488,596	36208,77
488,795	36771,96
488,994	37484,65
489,193	38070,37
489,392	38289,51
489,591	38137,96
489,79	37945,45
489,989	38234,21
490,188	37896,3
490,387	38051,94
490,586	37474,41
490,785	37271,67
490,984	36583,55
491,183	37177,46
491,382	36149,38
491,581	36673,66
491,779	37095,54
491,978	37841
492,177	37802,09
492,376	38563,93
492,575	38588,51
492,774	38178,92
492,972	38066,28
493,171	38611,04
493,37	38785,11
493,569	39092,31
493,768	39712,84
493,966	39768,14
494,165	39993,42
494,364	40087,62
494,563	39131,22
494,761	39508,05
494,96	39258,2
495,159	39946,31
495,357	38525,02
495,556	39473,23
495,755	38727,77
495,953	39944,27
496,152	39170,13
496,35	39526,48
496,549	39444,56
496,748	39080,02
496,946	38946,9
497,145	38398,05
497,343	38441,06
497,542	38361,19
497,74	37750,89
497,939	38686,81
498,137	38666,33
498,336	38617,18
498,534	37945,45
498,733	38537,31
498,931	38482,02
499,13	38430,82
499,328	37644,4
499,527	37902,44
499,725	37406,83
499,924	36946,04
500,122	36388,99
500,32	36728,95
500,519	36323,46
500,717	36237,44
500,915	36143,24
501,114	36403,33
501,312	36186,24
501,51	36900,98
501,709	36411,52
501,907	36827,26
502,105	36372,61
502,304	36888,7
502,502	35942,53
502,7	35942,53
502,898	35567,76
503,097	35582,09
503,295	35311,76
503,493	35682,44
503,691	35709,07
503,889	35905,67
504,088	36229,25
504,286	36681,85
504,484	36554,88
504,682	37236,85
504,88	37046,39
505,078	37947,5
505,276	37396,59
505,474	37587,05
505,672	37163,12
505,871	37472,37
506,069	37427,31
506,267	36939,9
506,465	36708,47
506,663	36681,85
506,861	36360,32
507,059	36094,08
507,257	36397,18
507,455	37144,69
507,653	36784,25
507,851	37294,19
508,049	37273,71
508,246	37797,99
508,444	37390,45
508,642	37970,02
508,84	37568,62
509,038	37720,17
509,236	37462,13
509,434	37286
509,632	37494,89
509,829	38262,88
510,027	37593,2
510,225	38520,93
510,423	38408,29
510,621	38215,78
510,818	39448,66
511,016	38979,67
511,214	38635,61
511,412	38811,74
511,609	38436,96
511,807	38264,93
512,005	37556,33
512,203	38389,86
512,4	38068,33
512,598	38289,51
512,796	37818,47
512,993	37861,48
513,191	37945,45
513,389	37855,34
513,586	37906,54
513,784	38211,68
513,981	38074,47
514,179	38371,43
514,377	38117,48
514,574	38363,23
514,772	38582,37
514,969	38803,55
515,167	38150,24
515,364	37795,95
515,562	37294,19
515,759	36030,6
515,957	35199,12
516,154	34990,23
516,352	34904,21
516,549	35139,73
516,746	35084,44
516,944	36178,05
517,141	36475,01
517,339	36020,36
517,536	36313,22
517,733	35901,57
517,931	36298,88
518,128	37421,17
518,325	37834,86
518,523	38709,34
518,72	38256,74
518,917	39370,83
519,115	39323,73
519,312	39442,51
519,509	39551,06
519,707	39739,47
519,904	39921,74
520,101	40261,7
520,298	40202,31
520,495	40730,69
520,693	40540,22
520,89	40704,06
521,087	40706,11
521,284	41105,46
521,481	40417,35
521,678	40808,51
521,876	40507,46
522,073	39940,17
522,27	39966,79
522,467	40888,38
522,664	41117,75
522,861	41766,96
523,058	41764,91
523,255	42221,61
523,452	42371,11
523,649	42160,17
523,846	42117,16
524,043	42463,27
524,24	42031,15
524,437	41981,99
524,634	42059,82
524,831	42278,95
525,028	41031,74
525,225	41134,13
525,422	40323,14
525,619	39839,82
525,816	38744,16
526,013	39331,92
526,209	38551,65
526,406	38991,96
526,603	39409,75
526,8	39938,12
526,997	39686,22
527,194	41121,85
527,39	41066,55
527,587	41576,5
527,784	41566,26
527,981	42197,03
528,177	42461,22
528,374	43261,97
528,571	42395,68
528,768	42612,77
528,964	42438,69
529,161	42629,15
529,358	42422,31
529,554	42453,03
529,751	42440,74
529,948	42924,06
530,144	42833,95
530,341	43356,18
530,537	42696,74
530,734	43130,9
530,931	42201,13
531,127	42123,3
531,324	41764,91
531,52	41228,34
531,717	40966,2
531,913	40742,97
532,11	40759,36
532,306	40978,49
532,503	40814,65
532,699	41107,51
532,896	41314,36
533,092	41441,33
533,289	41193,53
533,485	41283,64
533,682	41732,14
533,878	41949,23
534,074	41195,57
534,271	42129,45
534,467	42162,22
534,664	42631,2
534,86	42111,02
535,056	42905,63
535,253	42098,73
535,449	42313,76
535,645	41711,66
535,841	41717,81
536,038	40925,24
536,234	40601,66
536,43	41216,05
536,626	41146,42
536,823	41265,21
537,019	41711,66
537,215	41355,32
537,411	41463,86
537,607	40996,92
537,804	41478,19
538	40683,58
538,196	40810,56
538,392	40304,71
538,588	39997,51
538,784	40159,3
538,98	39669,84
539,176	39065,69
539,373	39710,8
539,569	38885,47
539,765	38850,65
539,961	38789,21
540,157	38639,71
540,353	38314,08
540,549	39239,76
540,745	38584,41
540,941	39163,99
541,137	39108,69
541,333	39278,68
541,528	39188,56
541,724	39333,97
541,92	39254,1
542,116	39311,44
542,312	38987,86
542,508	39481,42
542,704	39524,43
542,9	39370,83
543,096	39413,84
543,291	39358,55
543,487	39370,83
543,683	39546,96
543,879	39252,05
544,075	39073,88
544,27	39465,04
544,466	39278,68
544,662	39063,64
544,858	39870,54
545,053	38852,7
545,249	39450,7
545,445	39184,47
545,64	39340,11
545,836	38365,28
546,032	38541,41
546,227	38625,37
546,423	38793,31
546,619	38625,37
546,814	38543,45
547,01	38477,92
547,205	38365,28
547,401	38285,41
547,597	38789,21
547,792	38385,76
547,988	39018,58
548,183	38400,1
548,379	38778,97
548,574	38785,11
548,77	38862,94
548,965	38850,65
549,161	38869,08
549,356	38103,14
549,552	38674,52
549,747	38504,54
549,942	37953,64
550,138	38582,37
550,333	37847,15
550,529	38228,07
550,724	38666,33
550,919	38045,8
551,115	38592,61
551,31	38389,86
551,505	38363,23
551,701	37628,01
551,896	37818,47
552,091	37806,19
552,287	37693,55
552,482	37654,64
552,677	37873,77
552,872	37433,46
553,067	37994,6
553,263	37746,79
553,458	38240,36
553,653	37779,56
553,848	38295,65
554,043	37714,03
554,239	37992,55
554,434	37466,22
554,629	38103,14
554,824	37300,34
555,019	37421,17
555,214	37517,42
555,409	36673,66
555,604	36589,69
555,799	36358,27
555,994	36251,78
556,189	36481,15
556,384	36057,22
556,579	36356,22
556,774	36135,04
556,969	35969,16
557,164	35922,05
557,359	35897,48
557,554	35518,6
557,749	35172,5
557,944	34957,46
558,139	34855,06
558,334	34562,2
558,529	34594,97
558,724	34793,62
558,918	34674,84
559,113	35289,23
559,308	34848,92
559,503	34803,86
559,698	35418,25
559,893	35252,37
560,087	35448,97
560,282	35225,75
560,477	35000,47
560,672	34934,93
560,866	34969,75
561,061	34500,76
561,256	34932,89
561,45	34381,98
561,645	35186,83
561,84	34750,62
562,034	34896,02
562,229	34805,91
562,424	35109,01
562,618	34717,85
562,813	34539,68
563,008	33790,12
563,202	34134,18
563,397	34109,6
563,591	34363,55
563,786	34207,9
563,98	34769,05
564,175	33753,26
564,369	33829,03
564,564	33654,95
564,758	33577,13
564,953	33339,57
565,147	33212,59
565,342	33011,89
565,536	33437,87
565,731	33282,22
565,925	33423,53
566,119	33185,97
566,314	33575,08
566,508	32977,08
566,703	33296,56
566,897	33003,7
567,091	32831,67
567,286	32323,77
567,48	31955,14
567,674	31480,01
567,868	31987,91
568,063	31385,8
568,257	31563,98
568,451	31625,42
568,646	31523,02
568,84	31097,04
569,034	31510,73
569,228	30814,42
569,422	31275,21
569,616	30441,69
569,811	30599,38
570,005	30626,01
570,199	30789,84
570,393	31123,66
570,587	30716,12
570,781	31043,79
570,975	31158,48
571,169	31066,32
571,364	31357,13
571,558	31094,99
571,752	31625,42
571,946	30857,43
572,14	31596,74
572,334	31375,56
572,528	31674,57
572,722	31228,11
572,916	31301,84
573,109	30822,61
573,303	31158,48
573,497	31015,12
573,691	30904,53
573,885	30662,87
574,079	30873,81
574,273	30699,73
574,467	30783,7
574,661	30312,67
574,854	30513,37
575,048	30173,41
575,242	30173,41
575,436	30114,02
575,63	30693,59
575,823	29997,28
576,017	30427,35
576,211	29751,52
576,405	30583
576,598	30011,62
576,792	30460,12
576,986	30052,58
577,18	29860,07
577,373	29475,05
577,567	29786,34
577,761	29810,92
577,954	29956,32
578,148	29806,82
578,341	30240,99
578,535	30208,22
578,729	30695,64
578,922	30355,68
579,116	30458,07
579,309	30087,39
579,503	30879,96
579,696	30347,48
579,89	30828,76
580,083	30562,52
580,277	30595,29
580,47	30580,95
580,664	30695,64
580,857	30920,91
581,051	30681,3
581,244	30646,49
581,437	31332,56
581,631	30818,52
581,824	31338,7
582,018	31074,51
582,211	31447,24
582,404	31166,67
582,598	30961,87
582,791	30869,72
582,984	30773,46
583,178	31154,38
583,371	31670,47
583,564	30890,2
583,757	30769,37
583,951	30709,97
584,144	30879,96
584,337	30103,78
584,53	30281,95
584,723	29745,38
584,917	30152,93
585,11	29671,65
585,303	30302,43
585,496	29362,41
585,689	29776,1
585,882	29483,24
586,075	29640,93
586,268	29475,05
586,462	29094,13
586,655	28487,93
586,848	28428,54
587,041	27717,89
587,234	27429,13
587,427	26370,33
587,62	25979,17
587,813	25037,1
588,006	24355,13
588,199	23966,01
588,392	23576,9
588,585	23419,21
588,777	23544,13
588,97	23331,14
589,163	24062,27
589,356	24043,84
589,549	24572,21
589,742	24891,69
589,935	24865,07
590,128	24926,51
590,32	25008,43
590,513	24734
590,706	24826,16
590,899	24602,93
591,092	24875,31
591,284	24887,6
591,477	25311,53
591,67	25542,95
591,863	25463,08
592,055	25569,57
592,248	26001,69
592,441	25952,54
592,633	26083,61
592,826	25483,56
593,019	25202,99
593,211	24895,79
593,404	24791,34
593,596	24734
593,789	24518,96
593,982	24531,25
594,174	24813,87
594,367	25141,55
594,559	25657,64
594,752	25532,71
594,944	25217,32
595,137	25645,35
595,329	25577,76
595,522	25927,97
595,714	25962,78
595,907	25848,1
596,099	25684,26
596,292	25946,4
596,484	25835,81
596,676	25710,88
596,869	25792,8
597,061	25807,14
597,253	26308,89
597,446	25456,93
597,638	26433,82
597,83	26110,24
598,023	26222,87
598,215	25960,73
598,407	26042,65
598,6	26231,07
598,792	26538,26
598,984	26011,93
599,176	25899,3
599,369	26540,31
599,561	26634,52
599,753	26335,51
599,945	26706,2
600,137	26431,77
600,329	26478,87
600,522	25962,78
600,714	26491,16
600,906	25934,11
601,098	26224,92
601,29	26267,93
601,482	26149,15
601,674	26374,42
601,866	26745,11
602,058	26470,68
602,25	26550,55
602,442	26818,83
602,634	26800,4
602,826	26466,58
603,018	26851,6
603,21	26523,93
603,402	26896,66
603,594	26458,39
603,786	26853,65
603,978	26366,23
604,17	26605,84
604,362	26593,56
604,554	26732,82
604,745	26702,1
604,937	26833,17
605,129	25897,25
605,321	26081,56
605,513	26489,11
605,704	26353,94
605,896	25915,68
606,088	26222,87
606,28	26161,44
606,471	26374,42
606,663	25841,95
606,855	26075,42
607,047	25825,57
607,238	25684,26
607,43	25155,88
607,622	25905,44
607,813	25438,5
608,005	25477,41
608,197	25106,73
608,388	25458,98
608,58	25184,55
608,771	25174,31
608,963	24932,65
609,154	24787,25
609,346	24719,67
609,537	24582,45
609,729	24643,89
609,921	24836,4
610,112	24492,34
610,303	24699,19
610,495	24228,15
610,686	24351,03
610,878	24179
611,069	24391,99
611,261	23884,09
611,452	23849,28
611,643	23800,13
611,835	23927,1
612,026	23781,7
612,217	23425,35
612,409	23638,34
612,6	23648,58
612,791	23054,67
612,983	23120,2
613,174	23480,64
613,365	23454,02
613,557	23148,87
613,748	23408,97
613,939	23157,07
614,13	22970,7
614,321	22817,1
614,513	23222,6
614,704	22800,72
614,895	22696,27
615,086	22147,42
615,277	22325,59
615,468	22116,7
615,659	22266,2
615,851	22174,04
616,042	22258,01
616,233	22430,04
616,424	22993,23
616,615	22473,04
616,806	22399,32
616,997	22737,23
617,188	22747,47
617,379	22649,17
617,57	22632,79
617,761	22561,11
617,952	22819,15
618,143	22589,78
618,334	22559,06
618,524	22696,27
618,715	22917,45
618,906	22950,22
619,097	22903,12
619,288	23202,12
619,479	22993,23
619,67	23087,43
619,86	22968,65
620,051	22856,01
620,242	23038,28
620,433	23079,24
620,624	23112,01
620,814	22989,13
621,005	22753,62
621,196	22874,45
621,386	22993,23
621,577	23091,53
621,768	23005,52
621,958	22880,59
622,149	22909,26
622,34	22829,39
622,53	22778,19
622,721	22657,36
622,912	22765,9
623,102	22757,71
623,293	22976,84
623,483	23097,67
623,674	22827,34
623,864	22845,77
624,055	23069
624,245	22767,95
624,436	22829,39
624,626	22759,76
624,817	22896,97
625,007	22716,75
625,198	22817,1
625,388	22511,96
625,579	22907,21
625,769	22792,53
625,959	22872,4
626,15	22608,21
626,34	22292,82
626,531	21870,94
626,721	21694,82
626,911	21780,83
627,101	21590,37
627,292	21696,86
627,482	21977,44
627,672	21721,44
627,863	22026,59
628,053	21766,49
628,243	22045,02
628,433	21872,99
628,623	22026,59
628,814	21778,78
629,004	21895,52
629,194	21950,81
629,384	22088,03
629,574	22288,73
629,764	22192,47
629,955	22139,22
630,145	22258,01
630,335	22063,45
630,525	22030,68
630,715	21573,99
630,905	22112,6
631,095	21717,34
631,285	22110,55
631,475	22116,7
631,665	22024,54
631,855	21948,76
632,045	22403,41
632,235	21989,72
632,425	22407,51
632,615	22032,73
632,805	22368,6
632,994	21756,25
633,184	22204,76
633,374	21977,44
633,564	22270,29
633,754	22251,86
633,944	22489,43
634,133	21903,71
634,323	22079,83
634,513	21940,57
634,703	22081,88
634,893	21811,55
635,082	22053,21
635,272	22008,15
635,462	21995,87
635,651	22034,78
635,841	22206,81
636,031	22171,99
636,221	22071,64
636,41	22098,27
636,6	21877,08
636,789	22292,82
636,979	21936,48
637,169	21995,87
637,358	22194,52
637,548	22198,62
637,737	22002,01
637,927	21993,82
638,116	22151,51
638,306	21805,41
638,495	21928,28
638,685	21395,81
638,874	21709,15
639,064	21406,05
639,253	21922,14
639,443	21514,59
639,632	21391,72
639,822	20943,21
640,011	21506,4
640,2	21068,14
640,39	21084,52
640,579	21123,43
640,768	21254,5
640,958	20912,49
641,147	21262,69
641,336	20834,67
641,526	21141,86
641,715	20607,34
641,904	21051,75
642,093	20877,68
642,283	21137,77
642,472	20722,03
642,661	20613,49
642,85	20791,66
643,039	20941,16
643,228	20363,64
643,418	20603,25
643,607	20433,27
643,796	20420,98
643,985	19964,28
644,174	20013,43
644,363	19917,18
644,552	20038,01
644,741	19251,59
644,93	19507,58
645,119	18907,53
645,308	19181,96
645,497	18583,95
645,686	18221,46
645,875	18674,06
646,064	18311,57
646,253	17447,33
646,442	18164,12
646,631	17867,16
646,82	17682,84
647,009	17592,73
647,198	17668,51
647,387	17992,09
647,575	17299,87
647,764	17623,45
647,953	17293,73
648,142	17244,58
648,331	17258,92
648,519	17035,69
648,708	17633,69
648,897	17525,15
649,086	18164,12
649,274	18200,98
649,463	18112,92
649,652	18106,77
649,84	17947,03
650,029	17705,37
650,218	17756,57
650,406	17478,05
650,595	17140,13
650,784	17377,7
650,972	17674,65
651,161	17492,38
651,349	17744,28
651,538	17844,63
651,726	17699,23
651,915	17805,72
652,104	17840,54
652,292	18112,92
652,481	17979,8
652,669	17697,18
652,857	17865,11
653,046	17719,71
653,234	17834,39
653,423	17533,34
653,611	17793,44
653,8	16822,7
653,988	17299,87
654,176	16785,83
654,365	16499,12
654,553	16255,41
654,741	15575,48
654,93	15282,63
655,118	15274,43
655,306	15061,44
655,494	15221,19
655,683	15098,31
655,871	15518,14
656,059	15636,92
656,247	15897,02
656,436	16425,39
656,624	16445,87
656,812	16456,11
657	16763,31
657,188	16648,62
657,376	17068,45
657,564	17000,87
657,753	17402,27
657,941	17074,6
658,129	17232,29
658,317	17062,31
658,505	17473,95
658,693	17195,43
658,881	17326,5
659,069	17451,42
659,257	17418,66
659,445	17420,7
659,633	17316,26
659,821	17514,91
660,009	17594,78
660,197	17762,72
660,384	17641,89
660,572	17961,37
660,76	17881,5
660,948	17586,59
661,136	17584,54
661,324	17680,8
661,512	17496,48
661,699	17367,46
661,887	17416,61
662,075	17492,38
662,263	17426,85
662,451	17514,91
662,638	17068,45
662,826	17301,92
663,014	17101,22
663,201	17105,32
663,389	17031,59
663,577	17050,02
663,764	17201,57
663,952	16814,51
664,14	17129,89
664,327	17052,07
664,515	17062,31
664,702	16800,17
664,89	16980,39
665,078	16951,72
665,265	17013,16
665,453	17021,35
665,64	16869,8
665,828	16736,68
666,015	16955,82
666,203	16968,1
666,39	16961,96
666,578	16902,57
666,765	16851,37
666,952	16769,45
667,14	16718,25
667,327	16331,19
667,515	16646,57
667,702	16376,24
667,889	16603,57
668,077	16726,44
668,264	16439,73
668,451	16662,96
668,638	16624,04
668,826	16425,39
669,013	16337,33
669,2	16417,2
669,388	16519,6
669,575	16050,61
669,762	16206,26
669,949	15868,34
670,136	16298,42
670,323	15800,76
670,511	16273,84
670,698	15894,97
670,885	15878,58
671,072	15845,82
671,259	15743,42
671,446	15919,54
671,633	15841,72
671,82	15741,37
672,007	15765,95
672,194	15782,33
672,381	15851,96
672,568	15747,51
672,755	15761,85
672,942	15825,34
673,129	15821,24
673,316	15540,67
673,503	15495,61
673,69	15358,4
673,877	15735,23
674,064	15284,67
674,251	15317,44
674,437	15442,37
674,624	15200,71
674,811	15272,39
674,998	15407,55
675,185	15149,51
675,372	15124,93
675,558	15096,26
675,745	15186,37
675,932	15178,18
676,119	15333,82
676,305	14987,72
676,492	15350,21
676,679	14688,71
676,865	14954,95
677,052	14883,27
677,239	14889,42
677,425	14631,37
677,612	14995,91
677,798	14737,87
677,985	14735,82
678,172	14793,16
678,358	14920,13
678,545	14852,55
678,731	14549,45
678,918	14508,49
679,104	14371,28
679,291	14500,3
679,477	14619,08
679,664	14471,63
679,85	14553,55
680,036	14201,3
680,223	14272,98
680,409	14385,62
680,596	14428,62
680,782	14352,85
680,968	14066,13
681,155	14184,91
681,341	14189,01
681,527	14006,74
681,714	14191,06
681,9	14006,74
682,086	13855,19
682,272	13797,85
682,459	13963,73
682,645	13814,23
682,831	13709,79
683,017	13652,44
683,204	13441,5
683,39	13732,31
683,576	13652,44
683,762	13619,67
683,948	13433,31
684,134	13036
684,32	13591
684,506	13378,01
684,693	13351,39
684,879	12753,38
685,065	12700,14
685,251	11741,69
685,437	11362,81
685,623	10521,1
685,809	10009,11
685,995	9536,03
686,181	9329,18
686,366	9341,47
686,552	9357,85
686,738	9601,56
686,924	9826,84
687,11	9972,24
687,296	9837,08
687,482	9751,06
687,668	9787,93
687,853	9970,19
688,039	9771,54
688,225	9951,76
688,411	9753,11
688,597	9972,24
688,782	9949,71
688,968	10060,31
689,154	10052,11
689,34	10088,98
689,525	10381,84
689,711	10162,7
689,897	10566,15
690,082	10271,25
690,268	10357,26
690,454	10426,89
690,639	10424,84
690,825	10525,19
691,01	10535,43
691,196	10402,32
691,381	10310,16
691,567	10140,18
691,753	10070,54
691,938	9669,14
692,124	9695,77
692,309	9447,96
692,494	9364
692,68	9435,67
692,865	9329,18
693,051	9138,72
693,236	9122,34
693,422	9040,42
693,607	9355,8
693,792	9591,32
693,978	9452,06
694,163	9294,36
694,348	9351,71
694,534	9712,15
694,719	9335,32
694,904	9857,56
695,089	9892,37
695,275	10099,22
695,46	10218
695,645	10486,28
695,83	10512,91
696,016	10600,97
696,201	10349,07
696,386	10500,62
696,571	10254,86
696,756	10222,09
696,941	10428,94
697,126	10080,78
697,311	10062,35
697,497	9865,75
697,682	9878,04
697,867	9597,46
698,052	9730,58
698,237	9345,56
698,422	9476,63
698,607	9171,49
698,792	9222,69
698,977	9046,56
699,162	9185,82
699,347	9138,72
699,531	8970,79
699,716	9081,38
699,901	9026,08
700,086	8829,48
700,271	8929,83
700,456	9038,37
700,641	8903,2
700,825	8852
701,01	8733,22
701,195	9021,98
701,38	8745,51
701,565	8942,11
701,749	9028,13
701,934	9019,94
702,119	9372,19
702,303	9359,9
702,488	9191,97
702,673	9237,02
702,857	9450,01
703,042	9409,05
703,227	9691,67
703,411	9263,65
703,596	9437,72
703,78	9275,93
703,965	9579,03
704,15	9243,17
704,334	9273,89
704,519	9085,47
704,703	9265,69
704,888	9411,1
705,072	9310,75
705,257	9136,67
705,441	9372,19
705,625	9210,4
705,81	9036,32
705,994	9318,94
706,179	9339,42
706,363	9513,5
706,547	9468,44
706,732	9480,73
706,916	9337,37
707,1	9257,5
707,285	9349,66
707,469	9206,3
707,653	9435,67
707,837	9292,32
708,022	9366,04
708,206	9327,13
708,39	9480,73
708,574	9292,32
708,759	9353,76
708,943	9349,66
709,127	9263,65
709,311	9419,29
709,495	9435,67
709,679	9273,89
709,863	9599,51
710,047	9224,73
710,231	9454,11
710,415	9134,62
710,6	9359,9
710,784	9372,19
710,968	9144,86
711,152	9202,21
711,336	9017,89
711,519	9153,05
711,703	9052,7
711,887	9234,97
712,071	9069,09
712,255	8718,89
712,439	9114,14
712,623	8989,22
712,807	8925,73
712,991	8835,62
713,174	8618,54
713,358	8802,85
713,542	8532,52
713,726	8538,66
713,91	8483,37
714,093	8450,6
714,277	8309,29
714,461	8176,17
714,645	8026,67
714,828	7780,92
715,012	7285,31
715,196	7191,1
715,379	6853,19
715,563	6156,88
715,747	5866,07
715,93	5685,84
716,114	5401,18
716,297	5245,53
716,481	5106,27
716,664	4948,58
716,848	4868,7
717,031	4522,6
717,215	4440,68
717,398	4395,62
717,582	4276,84
717,765	4270,7
717,949	4102,76
718,132	4076,14
718,316	3971,69
718,499	3959,41
718,682	3902,06
718,866	3977,84
719,049	4049,52
719,233	4225,64
719,416	4348,52
719,599	4743,78
719,782	5147,23
719,966	5311,07
720,149	5495,38
720,332	5681,75
720,515	6009,42
720,699	5943,89
720,882	6163,02
721,065	6087,25
721,248	6285,9
721,431	6003,28
721,615	5966,42
721,798	5597,78
721,981	5395,03
722,164	5194,33
722,347	5053,02
722,53	4917,86
722,713	4766,31
722,896	4893,28
723,079	4811,36
723,262	4518,5
723,445	4541,03
723,628	4457,06
723,811	4612,71
723,994	4579,94
724,177	4491,88
724,36	4524,65
724,543	4602,47
724,726	4442,73
724,909	4485,73
725,091	4522,6
725,274	4616,8
725,457	4698,72
725,64	4541,03
725,823	4631,14
726,006	4479,59
726,188	4385,38
726,371	4590,18
726,554	4278,89
726,737	4641,38
726,919	4801,12
727,102	4756,07
727,285	4618,85
727,467	4573,8
727,65	4557,41
727,833	4385,38
728,015	4516,45
728,198	4514,41
728,38	4696,67
728,563	4729,44
728,746	4532,84
728,928	4602,47
729,111	4504,17
729,293	4577,89
729,476	4545,13
729,658	4469,35
729,841	4639,33
730,023	4688,48
730,205	4788,83
730,388	4790,88
730,57	5005,92
730,753	5130,84
730,935	5163,61
731,117	5487,19
731,3	5524,05
731,482	5796,43
731,664	5724,76
731,847	5843,54
732,029	5804,63
732,211	6126,16
732,394	6148,68
732,576	6115,92
732,758	6361,67
732,94	6363,72
733,122	6226,51
733,305	6287,95
733,487	6337,1
733,669	6304,33
733,851	6120,01
734,033	6138,44
734,215	6193,74
734,397	6197,84
734,58	6056,53
734,762	5968,46
734,944	5831,25
735,126	5941,84
735,308	5925,46
735,49	5995,09
735,672	6015,57
735,854	6183,5
736,036	6158,92
736,218	6353,48
736,399	6355,53
736,581	6197,84
736,763	6242,89
736,945	6373,96
737,127	6138,44
737,309	6197,84
737,491	6140,49
737,672	6163,02
737,854	6203,98
738,036	6091,34
738,218	6201,93
738,4	6492,74
738,581	6249,04
738,763	6351,43
738,945	6404,68
739,127	6355,53
739,308	6439,5
739,49	6337,1
739,672	6304,33
739,853	6437,45
740,035	6285,9
740,216	6421,06
740,398	6416,97
740,58	6451,78
740,761	6695,49
740,943	6298,19
741,124	6621,77
741,306	6328,91
741,487	6511,18
741,669	6523,46
741,85	6586,95
742,032	6672,96
742,213	6609,48
742,394	6470,22
742,576	6662,72
742,757	6513,22
742,939	6736,45
743,12	6507,08
743,301	6404,68
743,483	6605,38
743,664	6509,13
743,845	6640,2
744,027	6523,46
744,208	6423,11
744,389	6523,46
744,57	6566,47
744,752	6517,32
744,933	6527,56
745,114	6427,21
745,295	6437,45
745,476	6648,39
745,657	6392,39
745,839	6441,54
746,02	6201,93
746,201	6527,56
746,382	6359,63
746,563	6255,18
746,744	6462,02
746,925	6421,06
747,106	6421,06
747,287	6531,65
747,468	6406,73
747,649	6357,58
747,83	6521,42
748,011	6449,74
748,192	6427,21
748,373	6488,65
748,554	6382,15
748,735	6429,26
748,915	6316,62
749,096	6345,29
749,277	6529,61
749,458	6421,06
749,639	6416,97
749,82	6429,26
750	6445,64
750,181	6316,62
750,362	6552,13
750,543	6468,17
750,723	6529,61
750,904	6550,09
751,085	6591,05
751,265	6502,98
751,446	6650,44
751,627	6429,26
751,807	6589
751,988	6431,3
752,169	6554,18
752,349	6580,81
752,53	6703,68
752,71	6566,47
752,891	6699,59
753,071	6570,57
753,252	6670,92
753,432	6545,99
753,613	6781,51
753,793	6490,7
753,974	6713,92
754,154	6666,82
754,334	6629,96
754,515	6644,29
754,695	6726,21
754,876	6662,72
755,056	6799,94
755,236	6812,23
755,417	6758,98
755,597	6812,23
755,777	6619,72
755,957	6754,88
756,138	6646,34
756,318	6576,71
756,498	6670,92
756,678	6664,77
756,859	6646,34
757,039	6496,84
757,219	6455,88
757,399	6369,87
757,579	5999,18
757,759	5565,01
757,939	5057,12
758,119	4467,3
758,3	3719,79
758,48	2814,59
758,66	2130,57
758,84	1600,15
759,02	1299,09
759,2	1012,38
759,38	946,84
759,56	920,22
759,74	1049,24
759,919	1129,11
760,099	1503,89
760,279	1700,5
760,459	1936,01
760,639	2261,64
760,819	2204,3
760,999	2167,43
761,178	2110,09
761,358	1770,13
761,538	1874,57
761,718	1546,9
761,898	1608,34
762,077	1692,3
762,257	1720,98
762,437	1854,09
762,616	1817,23
762,796	2024,08
762,976	2003,6
763,155	2140,81
763,335	2300,55
763,515	2359,94
763,694	2626,18
763,874	2851,46
764,053	2855,55
764,233	3023,48
764,413	3213,95
764,592	3469,94
764,772	3654,26
764,951	3789,42
765,131	3945,07
765,31	4098,67
765,489	4409,96
765,669	4448,87
765,848	4588,13
766,028	4704,87
766,207	4803,17
766,386	4876,9
766,566	4973,15
766,745	5018,21
766,924	5036,64
767,104	5065,31
767,283	5163,61
767,462	5034,59
767,642	5206,62
767,821	5075,55
768	5327,45
768,179	4981,34
768,358	4930,14
768,538	5014,11
768,717	5106,27
768,896	5145,18
769,075	5165,66
769,254	4977,25
769,433	5136,99
769,612	5130,84
769,791	5014,11
769,97	4913,76
770,149	4999,77
770,328	4854,37
770,507	5175,9
770,686	4887,14
770,865	5159,52
771,044	4872,8
771,223	4797,03
771,402	4895,33
771,581	4723,3
771,76	4684,39
771,939	4747,87
772,118	4784,74
772,297	4833,89
772,475	4565,6
772,654	4647,52
772,833	4751,97
773,012	4602,47
773,191	4567,65
773,369	4704,87
773,548	4440,68
773,727	4547,17
773,906	4444,77
774,084	4465,25
774,263	4475,49
774,442	4434,53
774,62	4491,88
774,799	4459,11
774,977	4397,67
775,156	4407,91
775,335	4334,18
775,513	4274,79
775,692	4217,45
775,87	4344,42
776,049	4369
776,227	4088,43
776,406	4098,67
776,584	4274,79
776,763	4080,24
776,941	4174,44
777,119	4104,81
777,298	4274,79
777,476	4125,29
777,655	3996,27
777,833	3936,88
778,011	3945,07
778,19	3955,31
778,368	3857,01
778,546	3844,72
778,725	3893,87
778,903	3744,37
779,081	3775,09
779,259	3914,35
779,437	3756,66
779,616	3789,42
779,794	3719,79
779,972	3697,27
780,15	3846,77
780,328	3588,72
780,506	3777,14
780,685	3697,27
780,863	3910,25
781,041	3711,6
781,219	3582,58
781,397	3648,11
781,575	3576,44
781,753	3476,09
781,931	3445,37
782,109	3463,8
782,287	3433,08
782,465	3414,65
782,643	3488,37
782,82	3381,88
782,998	3582,58
783,176	3394,17
783,354	3498,61
783,532	3476,09
783,71	3361,4
783,888	3254,9
784,065	3199,61
784,243	3363,45
784,421	3302,01
784,599	3166,84
784,776	3080,83
784,954	3158,65
785,132	3127,93
785,31	3025,53
785,487	2982,53
785,665	2951,81
785,842	3043,96
786,02	3027,58
786,198	3023,48
786,375	2916,99
786,553	2914,94
786,73	2798,21
786,908	2761,34
787,085	2880,13
787,263	2693,76
787,44	2847,36
787,618	2615,94
787,795	2671,23
787,973	2570,88
788,15	2640,51
788,328	2585,22
788,505	2493,06
788,682	2542,21
788,86	2566,79
789,037	2650,75
789,215	2595,46
789,392	2466,44
789,569	2550,4
789,746	2493,06
789,924	2503,3
790,101	2472,58
790,278	2505,35
790,455	2450,05
790,633	2536,07
790,81	2491,01
790,987	2435,72
791,164	2331,27
791,341	2441,86
791,518	2452,1
791,695	2349,7
791,873	2429,57
792,05	2263,69
792,227	2538,12
792,404	2628,23
792,581	2511,49
792,758	2333,32
792,935	2341,51
793,112	2452,1
793,289	2445,96
793,466	2452,1
793,643	2384,52
793,82	2327,18
793,996	2294,41
794,173	2198,15
794,35	2292,36
794,527	2271,88
794,704	2198,15
794,881	2091,66
795,057	2058,89
795,234	2112,14
795,411	2140,81
795,588	2118,28
795,765	2099,85
795,941	2239,11
796,118	2153,1
796,295	2120,33
796,471	2198,15
796,648	2169,48
796,825	2222,73
797,001	2339,46
797,178	2175,63
797,354	2142,86
797,531	2099,85
797,708	2062,99
797,884	2112,14
798,061	2015,88
798,237	1956,49
798,414	1983,12
798,59	1999,5
798,767	2163,34
798,943	1993,36
799,119	1909,39
799,296	2019,98
799,472	2124,43
799,649	1936,01
799,825	1909,39
800,001	1813,13
800,178	1837,71
800,354	1950,35
800,53	1833,61
800,707	1933,97
800,883	1757,84
801,059	1811,09
801,235	1776,27
801,411	1739,41
801,588	1893,01
801,764	1888,91
801,94	1886,86
802,116	1901,2
802,292	1792,66
802,468	1954,44
802,645	1815,18
802,821	1835,66
802,997	1710,74
803,173	1819,28
803,349	1634,96
803,525	1886,86
803,701	1850
803,877	1856,14
804,053	1938,06
804,229	1866,38
804,405	1843,85
804,581	1872,53
804,756	1845,9
804,932	1919,63
805,108	1858,19
805,284	1782,42
805,46	1753,74
805,636	1825,42
805,812	1872,53
805,987	1690,26
806,163	1743,5
806,339	1927,82
806,515	1870,48
806,69	1772,18
806,866	1827,47
807,042	1712,78
807,217	1708,69
807,393	1792,66
807,569	1634,96
807,744	1624,72
807,92	1594
808,096	1641,11
808,271	1620,63
808,447	1555,09
808,622	1602,19
808,798	1573,52
808,973	1555,09
809,149	1280,66
809,324	1464,98
809,5	1297,05
809,675	1424,02
809,851	1397,4
810,026	1331,86
810,201	1415,83
810,377	1292,95
810,552	1319,57
810,728	1290,9
810,903	1272,47
811,078	1286,81
811,253	1157,78
811,429	1262,23
811,604	1247,9
811,779	1206,94
811,955	903,84
812,13	1016,48
812,305	1108,63
812,48	952,99
812,655	922,27
812,83	881,31
813,006	852,64
813,181	955,04
813,356	952,99
813,531	879,26
813,706	780,96
813,881	840,35
814,056	862,88
814,231	834,21
814,406	930,46
814,581	680,61
814,756	776,86
814,931	731,81
815,106	662,18
815,281	742,05
815,456	776,86
815,631	797,34
815,805	670,37
815,98	719,52
816,155	828,06
816,33	717,47
816,505	723,62
816,68	744,1
816,854	735,9
817,029	676,51
817,204	740
817,379	860,83
817,553	785,05
817,728	793,25
817,903	637,6
818,077	768,67
818,252	819,87
818,427	735,9
818,601	768,67
818,776	924,32
818,95	996
819,125	897,69
819,299	1004,19
819,474	975,52
819,648	996
819,823	1020,57
819,997	875,17
820,172	1092,25
820,346	944,8
820,521	846,49
820,695	920,22
820,87	764,57
821,044	772,77
821,218	723,62
821,393	676,51
821,567	578,21
821,741	629,41
821,916	533,15
822,09	635,55
822,264	766,62
822,438	518,82
822,613	613,03
822,787	780,96
822,961	801,44
823,135	848,54
823,309	809,63
823,483	912,03
823,658	967,32
823,832	901,79
824,006	883,36
824,18	803,49
824,354	848,54
824,528	869,02
824,702	873,12
824,876	895,64
825,05	907,93
825,224	862,88
825,398	817,82
825,572	979,61
825,746	731,81
825,92	807,58
826,093	776,86
826,267	778,91
826,441	744,1
826,615	684,7
826,789	826,01
826,963	705,18
827,136	604,83
827,31	715,42
827,484	713,38
827,658	717,47
827,831	780,96
828,005	662,18
828,179	692,9
828,353	819,87
828,526	717,47
828,7	764,57
828,873	705,18
829,047	731,81
829,221	684,7
829,394	696,99
829,568	719,52
829,741	668,32
829,915	694,94
830,088	744,1
830,262	768,67
830,435	787,1
830,609	731,81
830,782	852,64
830,956	768,67
831,129	723,62
831,302	740
831,476	658,08
831,649	717,47
831,822	719,52
831,996	760,48
832,169	694,94
832,342	635,55
832,516	744,1
832,689	821,92
832,862	752,29
833,035	795,29
833,209	731,81
833,382	748,19
833,555	907,93
833,728	756,38
833,901	842,4
834,074	656,03
834,247	746,14
834,42	795,29
834,594	838,3
834,767	948,89
834,94	793,25
835,113	838,3
835,286	733,86
835,459	846,49
835,632	805,53
835,805	750,24
835,977	797,34
836,15	778,91
836,323	797,34
836,496	744,1
836,669	766,62
836,842	830,11
837,015	883,36
837,188	701,09
837,36	783,01
837,533	678,56
837,706	879,26
837,879	823,97
838,051	866,97
838,224	682,66
838,397	772,77
838,569	754,34
838,742	854,69
838,915	754,34
839,087	797,34
839,26	740
839,433	754,34
839,605	729,76
839,778	817,82
839,95	828,06
840,123	735,9
840,295	780,96
840,468	780,96
840,64	852,64
840,813	715,42
840,985	848,54
841,158	787,1
841,33	801,44
841,502	756,38
841,675	785,05
841,847	696,99
842,019	778,91
842,192	717,47
842,364	682,66
842,536	639,65
842,709	664,22
842,881	744,1
843,053	783,01
843,225	774,81
843,398	740
843,57	719,52
843,742	672,42
843,914	656,03
844,086	746,14
844,258	719,52
844,43	772,77
844,602	754,34
844,775	610,98
844,947	690,85
845,119	715,42
845,291	766,62
845,463	694,94
845,635	803,49
845,807	750,24
845,979	797,34
846,15	733,86
846,322	678,56
846,494	645,79
846,666	717,47
846,838	705,18
847,01	752,29
847,182	705,18
847,354	686,75
847,525	725,66
847,697	678,56
847,869	711,33
848,041	770,72
848,212	678,56
848,384	645,79
848,556	559,78
848,727	586,4
848,899	635,55
849,071	543,39
849,242	621,22
849,414	563,87
849,585	668,32
849,757	541,35
849,929	559,78
850,1	625,31
850,272	592,55
850,443	547,49
850,615	613,03
850,786	572,07
850,958	629,41
851,129	633,5
851,3	500,39
851,472	727,71
851,643	588,45
851,815	699,04
851,986	621,22
852,157	604,83
852,329	649,89
852,5	502,43
852,671	459,43
852,842	549,54
853,014	484
853,185	447,14
853,356	494,24
853,527	412,32
853,698	561,83
853,87	541,35
854,041	606,88
854,212	547,49
854,383	520,87
854,554	457,38
854,725	479,91
854,896	479,91
855,067	516,77
855,238	561,83
855,409	471,72
855,58	457,38
855,751	434,85
855,922	447,14
856,093	473,76
856,264	502,43
856,435	494,24
856,606	467,62
856,777	463,52
856,948	490,15
857,118	588,45
857,289	561,83
857,46	502,43
857,631	496,29
857,802	457,38
857,972	436,9
858,143	486,05
858,314	527,01
858,484	481,96
858,655	471,72
858,826	604,83
858,996	449,19
859,167	436,9
859,338	418,47
859,508	457,38
859,679	447,14
859,849	557,73
860,02	443,04
860,19	389,8
860,361	428,71
860,531	414,37
860,702	488,1
860,872	514,72
861,043	457,38
861,213	496,29
861,384	420,52
861,554	432,8
861,724	445,09
861,895	443,04
862,065	397,99
862,235	420,52
862,406	477,86
862,576	326,31
862,746	506,53
862,916	463,52
863,087	416,42
863,257	537,25
863,427	387,75
863,597	428,71
863,767	424,61
863,937	428,71
864,108	426,66
864,278	441
864,448	371,36
864,618	387,75
864,788	477,86
864,958	332,45
865,128	397,99
865,298	377,51
865,468	348,84
865,638	303,78
865,808	281,25
865,978	320,17
866,148	436,9
866,318	453,28
866,487	256,68
866,657	354,98
866,827	352,93
866,997	330,41
867,167	316,07
867,337	348,84
867,506	361,13
867,676	406,18
867,846	350,89
868,016	289,45
868,185	357,03
868,355	369,32
868,525	336,55
868,694	363,17
868,864	389,8
869,034	397,99
869,203	299,69
869,373	289,45
869,542	340,65
869,712	428,71
869,881	375,46
870,051	369,32
870,22	348,84
870,39	414,37
870,559	252,58
870,729	289,45
870,898	334,5
871,068	365,22
871,237	322,21
871,406	252,58
871,576	359,08
871,745	293,54
871,914	375,46
872,084	338,6
872,253	301,73
872,422	324,26
872,591	354,98
872,761	369,32
872,93	262,82
873,099	295,59
873,268	252,58
873,437	289,45
873,607	242,34
873,776	291,49
873,945	293,54
874,114	301,73
874,283	242,34
874,452	299,69
874,621	336,55
874,79	340,65
874,959	373,41
875,128	201,38
875,297	170,66
875,466	307,88
875,635	170,66
875,804	305,83
875,973	230,06
876,142	172,71
876,31	221,86
876,479	346,79
876,648	246,44
876,817	299,69
876,986	244,39
877,155	135,85
877,323	146,09
877,492	271,01
877,661	207,53
877,829	293,54
877,998	154,28
878,167	178,86
878,335	166,57
878,504	236,2
878,673	238,25
878,841	258,73
879,01	162,47
879,178	209,58
879,347	221,86
879,515	256,68
879,684	234,15
879,852	107,18
880,021	299,69
880,189	240,29
880,358	160,42
880,526	314,02
880,695	150,18
880,863	160,42
881,031	219,82
881,2	180,9
881,368	234,15
881,536	129,7
881,705	221,86
881,873	228,01
882,041	189,1
882,21	180,9
882,378	215,72
882,546	129,7
882,714	193,19
882,882	209,58
883,05	234,15
883,219	189,1
883,387	158,38
883,555	123,56
883,723	162,47
883,891	182,95
884,059	170,66
884,227	240,29
884,395	123,56
884,563	150,18
884,731	111,27
884,899	201,38
885,067	180,9
885,235	113,32
885,403	170,66
885,571	88,75
885,739	154,28
