Data from Subt16__4__14-45-35-796.txt Node

Date: Wed Oct 20 14:45:35 CEST 2021
User: Praktikum
Spectrometer: USB4F03543
Trigger mode: 4
Integration Time (sec): 1,000000E-1
Scans to average: 1
Electric dark correction enabled: true
Nonlinearity correction enabled: false
Boxcar width: 0
XAxis mode: Wavelengths
Number of Pixels in Spectrum: 3648
>>>>>Begin Spectral Data<<<<<
179,969	54,78
180,181	54,78
180,394	54,78
180,606	-33,28
180,819	-45,57
181,031	13,82
181,243	67,07
181,456	1,54
181,668	3,58
181,88	44,54
182,093	-18,94
182,305	-10,75
182,518	-72,19
182,73	46,59
182,942	11,78
183,155	-2,56
183,367	-84,48
183,579	171,52
183,791	-68,09
184,004	17,92
184,216	62,98
184,428	77,31
184,641	-12,8
184,853	-70,14
185,065	54,78
185,277	-14,85
185,49	-86,53
185,702	-51,71
185,914	46,59
186,126	15,87
186,338	83,45
186,551	-18,94
186,763	5,63
186,975	-37,38
187,187	19,97
187,399	-0,51
187,612	13,82
187,824	-43,52
188,036	40,45
188,248	-2,56
188,46	-92,67
188,672	26,11
188,885	54,78
189,097	81,41
189,309	17,92
189,521	60,93
189,733	-27,14
189,945	17,92
190,157	34,3
190,369	-20,99
190,581	-12,8
190,794	-72,19
191,006	26,11
191,218	50,69
191,43	-37,38
191,642	-14,85
191,854	-115,2
192,066	-0,51
192,278	75,26
192,49	-53,76
192,702	9,73
192,914	44,54
193,126	-25,09
193,338	73,21
193,55	-51,71
193,762	-86,53
193,974	32,26
194,186	50,69
194,398	-55,81
194,61	-100,86
194,822	-0,51
195,034	52,74
195,246	-4,61
195,457	32,26
195,669	50,69
195,881	-31,23
196,093	-109,05
196,305	75,26
196,517	60,93
196,729	-49,66
196,941	30,21
197,153	-82,43
197,365	46,59
197,576	48,64
197,788	-35,33
198	-16,9
198,212	-35,33
198,424	-39,42
198,636	-59,9
198,847	-35,33
199,059	-123,39
199,271	-33,28
199,483	85,5
199,695	1,54
199,906	-39,42
200,118	-16,9
200,33	-29,18
200,542	56,83
200,753	-45,57
200,965	-10,75
201,177	89,6
201,389	40,45
201,6	42,5
201,812	34,3
202,024	-74,24
202,235	60,93
202,447	87,55
202,659	11,78
202,871	95,74
203,082	-39,42
203,294	34,3
203,506	-6,66
203,717	9,73
203,929	46,59
204,141	91,65
204,352	-78,33
204,564	30,21
204,775	-113,15
204,987	48,64
205,199	5,63
205,41	48,64
205,622	28,16
205,833	140,8
206,045	54,78
206,257	50,69
206,468	-0,51
206,68	-33,28
206,891	-39,42
207,103	-31,23
207,314	71,17
207,526	50,69
207,737	15,87
207,949	48,64
208,16	5,63
208,372	-27,14
208,583	-8,7
208,795	42,5
209,006	-55,81
209,218	122,37
209,429	19,97
209,641	-20,99
209,852	-41,47
210,064	-66,05
210,275	-72,19
210,487	7,68
210,698	50,69
210,909	3,58
211,121	28,16
211,332	-80,38
211,544	-43,52
211,755	-23,04
211,966	15,87
212,178	-51,71
212,389	46,59
212,6	-16,9
212,812	48,64
213,023	26,11
213,234	-27,14
213,446	-29,18
213,657	26,11
213,868	40,45
214,08	-8,7
214,291	54,78
214,502	-37,38
214,714	9,73
214,925	77,31
215,136	1,54
215,347	-150,01
215,559	7,68
215,77	5,63
215,981	-59,9
216,192	22,02
216,404	67,07
216,615	-33,28
216,826	58,88
217,037	7,68
217,249	30,21
217,46	-25,09
217,671	-100,86
217,882	3,58
218,093	-45,57
218,304	5,63
218,516	-2,56
218,727	38,4
218,938	32,26
219,149	79,36
219,36	9,73
219,571	22,02
219,782	-20,99
219,993	-18,94
220,205	-27,14
220,416	73,21
220,627	-43,52
220,838	-18,94
221,049	1,54
221,26	-49,66
221,471	34,3
221,682	-59,9
221,893	15,87
222,104	-20,99
222,315	19,97
222,526	56,83
222,737	1,54
222,948	101,89
223,159	38,4
223,37	-4,61
223,581	3,58
223,792	-27,14
224,003	40,45
224,214	-47,62
224,425	-72,19
224,636	28,16
224,847	-86,53
225,058	36,35
225,269	50,69
225,48	13,82
225,691	48,64
225,902	-45,57
226,112	81,41
226,323	30,21
226,534	48,64
226,745	40,45
226,956	-6,66
227,167	83,45
227,378	-8,7
227,589	-10,75
227,799	-12,8
228,01	-33,28
228,221	17,92
228,432	9,73
228,643	-33,28
228,853	13,82
229,064	77,31
229,275	-94,72
229,486	-20,99
229,697	-35,33
229,907	-0,51
230,118	-41,47
230,329	-76,29
230,54	95,74
230,75	48,64
230,961	-20,99
231,172	-35,33
231,383	26,11
231,593	-176,64
231,804	28,16
232,015	3,58
232,225	122,37
232,436	-10,75
232,647	5,63
232,857	40,45
233,068	124,41
233,279	-4,61
233,489	75,26
233,7	95,74
233,91	3,58
234,121	-90,62
234,332	-57,86
234,542	-25,09
234,753	85,5
234,964	-23,04
235,174	-35,33
235,385	48,64
235,595	48,64
235,806	-78,33
236,016	1,54
236,227	26,11
236,437	-49,66
236,648	71,17
236,858	87,55
237,069	71,17
237,279	-8,7
237,49	28,16
237,7	-6,66
237,911	-8,7
238,121	17,92
238,332	58,88
238,542	71,17
238,753	-61,95
238,963	-41,47
239,174	85,5
239,384	15,87
239,595	32,26
239,805	13,82
240,015	32,26
240,226	-6,66
240,436	34,3
240,647	28,16
240,857	-76,29
241,067	1,54
241,278	40,45
241,488	-94,72
241,698	-53,76
241,909	52,74
242,119	26,11
242,329	44,54
242,54	-109,05
242,75	-33,28
242,96	58,88
243,171	32,26
243,381	81,41
243,591	-51,71
243,801	-68,09
244,012	36,35
244,222	-18,94
244,432	-18,94
244,642	110,08
244,853	-12,8
245,063	-23,04
245,273	9,73
245,483	-0,51
245,694	40,45
245,904	73,21
246,114	-10,75
246,324	-23,04
246,534	58,88
246,744	69,12
246,955	3,58
247,165	-33,28
247,375	-57,86
247,585	-92,67
247,795	-96,77
248,005	54,78
248,215	-10,75
248,425	-18,94
248,636	134,65
248,846	5,63
249,056	-4,61
249,266	-8,7
249,476	83,45
249,686	24,06
249,896	-68,09
250,106	38,4
250,316	58,88
250,526	42,5
250,736	19,97
250,946	89,6
251,156	-57,86
251,366	-107,01
251,576	38,4
251,786	17,92
251,996	-64
252,206	-33,28
252,416	-37,38
252,626	-31,23
252,836	105,98
253,046	-72,19
253,256	50,69
253,466	-0,51
253,676	-43,52
253,885	54,78
254,095	-129,53
254,305	17,92
254,515	-14,85
254,725	40,45
254,935	87,55
255,145	-33,28
255,355	163,33
255,564	11,78
255,774	-55,81
255,984	-25,09
256,194	83,45
256,404	-41,47
256,614	-88,57
256,823	-61,95
257,033	-2,56
257,243	34,3
257,453	-39,42
257,662	28,16
257,872	32,26
258,082	36,35
258,292	-90,62
258,501	-20,99
258,711	-0,51
258,921	-8,7
259,131	5,63
259,34	44,54
259,55	34,3
259,76	-51,71
259,969	11,78
260,179	-20,99
260,389	-23,04
260,598	-8,7
260,808	30,21
261,018	75,26
261,227	-45,57
261,437	142,85
261,647	-20,99
261,856	7,68
262,066	-10,75
262,275	-162,3
262,485	-8,7
262,694	105,98
262,904	77,31
263,114	-68,09
263,323	19,97
263,533	34,3
263,742	-78,33
263,952	-14,85
264,161	15,87
264,371	73,21
264,58	28,16
264,79	93,69
264,999	13,82
265,209	-27,14
265,418	-102,91
265,628	-37,38
265,837	34,3
266,047	7,68
266,256	-57,86
266,466	7,68
266,675	-10,75
266,884	-35,33
267,094	-53,76
267,303	-74,24
267,513	62,98
267,722	24,06
267,931	-6,66
268,141	48,64
268,35	-33,28
268,559	-51,71
268,769	5,63
268,978	-64
269,187	24,06
269,397	-25,09
269,606	56,83
269,815	-18,94
270,025	65,02
270,234	-41,47
270,443	-0,51
270,653	22,02
270,862	3,58
271,071	79,36
271,28	-6,66
271,49	-10,75
271,699	71,17
271,908	-68,09
272,117	62,98
272,327	28,16
272,536	-23,04
272,745	-10,75
272,954	79,36
273,163	7,68
273,372	-61,95
273,582	85,5
273,791	28,16
274	-35,33
274,209	-8,7
274,418	97,79
274,627	7,68
274,836	-23,04
275,046	13,82
275,255	-117,25
275,464	56,83
275,673	-10,75
275,882	-61,95
276,091	26,11
276,3	22,02
276,509	26,11
276,718	19,97
276,927	-49,66
277,136	1,54
277,345	36,35
277,554	-8,7
277,763	155,13
277,972	40,45
278,181	-45,57
278,39	-64
278,599	1,54
278,808	105,98
279,017	-127,49
279,226	52,74
279,435	71,17
279,644	-86,53
279,853	42,5
280,062	-0,51
280,271	-16,9
280,48	30,21
280,688	54,78
280,897	-4,61
281,106	48,64
281,315	13,82
281,524	-12,8
281,733	-27,14
281,942	71,17
282,151	-74,24
282,359	108,03
282,568	40,45
282,777	54,78
282,986	73,21
283,195	11,78
283,403	-84,48
283,612	44,54
283,821	-27,14
284,03	-45,57
284,238	-0,51
284,447	5,63
284,656	9,73
284,865	54,78
285,073	9,73
285,282	101,89
285,491	-12,8
285,699	105,98
285,908	105,98
286,117	48,64
286,325	-33,28
286,534	-10,75
286,743	-16,9
286,951	-20,99
287,16	15,87
287,369	24,06
287,577	65,02
287,786	120,32
287,995	83,45
288,203	-31,23
288,412	48,64
288,62	22,02
288,829	-2,56
289,037	15,87
289,246	-12,8
289,455	54,78
289,663	3,58
289,872	44,54
290,08	-4,61
290,289	56,83
290,497	62,98
290,706	50,69
290,914	24,06
291,123	30,21
291,331	11,78
291,54	124,41
291,748	122,37
291,957	105,98
292,165	3,58
292,373	34,3
292,582	-0,51
292,79	42,5
292,999	-20,99
293,207	-25,09
293,415	26,11
293,624	-12,8
293,832	-47,62
294,041	105,98
294,249	65,02
294,457	30,21
294,666	5,63
294,874	28,16
295,082	-41,47
295,291	26,11
295,499	5,63
295,707	54,78
295,915	67,07
296,124	77,31
296,332	95,74
296,54	71,17
296,749	42,5
296,957	11,78
297,165	30,21
297,373	-8,7
297,581	-4,61
297,79	-4,61
297,998	13,82
298,206	69,12
298,414	124,41
298,622	22,02
298,831	48,64
299,039	-35,33
299,247	91,65
299,455	54,78
299,663	46,59
299,871	5,63
300,08	75,26
300,288	93,69
300,496	-8,7
300,704	24,06
300,912	-59,9
301,12	99,84
301,328	62,98
301,536	3,58
301,744	-6,66
301,952	38,4
302,16	85,5
302,368	38,4
302,576	36,35
302,784	110,08
302,992	112,13
303,2	52,74
303,408	58,88
303,616	146,94
303,824	32,26
304,032	183,81
304,24	124,41
304,448	101,89
304,656	157,18
304,864	120,32
305,072	239,1
305,28	151,04
305,488	136,7
305,696	185,85
305,904	247,29
306,111	370,17
306,319	263,68
306,527	304,64
306,735	318,97
306,943	278,01
307,151	378,36
307,359	388,6
307,566	417,27
307,774	579,06
307,982	394,75
308,19	364,03
308,398	433,66
308,605	501,24
308,813	503,29
309,021	542,2
309,229	523,77
309,436	611,83
309,644	517,62
309,852	654,84
310,06	654,84
310,267	599,54
310,475	826,87
310,683	906,74
310,89	863,73
311,098	867,83
311,306	957,94
311,513	972,27
311,721	947,7
311,929	1093,1
312,136	1127,92
312,344	1084,91
312,552	1101,3
312,759	1025,52
312,967	1250,8
313,174	1172,97
313,382	1320,43
313,589	1291,76
313,797	1353,2
314,005	1418,73
314,212	1404,39
314,42	1383,91
314,627	1508,84
314,835	1590,76
315,042	1504,75
315,25	1531,37
315,457	1490,41
315,665	1484,27
315,872	1584,62
316,08	1650,15
316,287	1797,6
316,495	1820,13
316,702	1889,76
316,909	1887,72
317,117	2080,22
317,324	2104,8
317,532	2172,38
317,739	2184,67
317,946	2162,14
318,154	2108,9
318,361	2131,42
318,569	2242,01
318,776	2219,49
318,983	2256,35
319,191	2389,47
319,398	2538,97
319,605	2575,83
319,813	2620,89
320,02	2659,8
320,227	2786,77
320,434	2975,19
320,642	2999,76
320,849	2946,52
321,056	2942,42
321,264	2960,85
321,471	3016,15
321,678	2981,33
321,885	2903,51
322,092	2907,6
322,3	2962,9
322,507	2872,79
322,714	2821,59
322,921	2981,33
323,128	2854,36
323,336	2952,66
323,543	3139,02
323,75	3339,73
323,957	3333,58
324,164	3614,15
324,371	3603,91
324,578	3734,98
324,786	3628,49
324,993	4011,46
325,2	3868,1
325,407	4261,31
325,614	4265,41
325,821	4459,96
326,028	4578,75
326,235	4644,28
326,442	4842,93
326,649	4896,18
326,856	4851,13
327,063	5002,68
327,27	4697,53
327,477	4703,67
327,684	4791,73
327,891	4797,88
328,098	4672,95
328,305	5039,54
328,512	4801,97
328,719	5303,73
328,926	5203,38
329,133	5436,85
329,34	5457,32
329,546	5694,89
329,753	5584,3
329,96	5703,08
330,167	5596,59
330,374	5543,34
330,581	5369,26
330,788	5356,97
330,995	5186,99
331,201	5244,34
331,408	5328,3
331,615	5522,86
331,822	5254,58
332,029	5270,96
332,235	5346,73
332,442	5283,25
332,649	5483,95
332,856	5432,75
333,062	5412,27
333,269	5502,38
333,476	5125,55
333,683	5625,26
333,889	5356,97
334,096	5688,75
334,303	5451,18
334,509	5576,11
334,716	5615,02
334,923	5612,97
335,129	5551,53
335,336	5471,66
335,543	5338,54
335,749	5363,12
335,956	5012,92
336,163	5209,52
336,369	4955,57
336,576	5150,13
336,782	4887,99
336,989	5041,59
337,196	5068,21
337,402	5293,49
337,609	5180,85
337,815	5445,04
338,022	5508,52
338,228	5901,73
338,435	5662,12
338,641	5758,38
338,848	5916,07
339,054	6051,24
339,261	6008,23
339,467	5963,17
339,674	6333,86
339,88	6262,18
340,087	6305,18
340,293	6479,26
340,5	6120,87
340,706	6075,81
340,912	6151,59
341,119	5977,51
341,325	6081,96
341,532	6602,14
341,738	6063,52
341,944	6505,88
342,151	6399,39
342,357	6534,56
342,563	6440,35
342,77	6565,28
342,976	6194,59
343,182	6327,71
343,389	6067,62
343,595	5844,39
343,801	5713,32
344,007	5596,59
344,214	5432,75
344,42	5711,27
344,626	5754,28
344,832	5979,56
345,039	5993,89
345,245	6116,77
345,451	6139,3
345,657	6170,02
345,864	6239,65
346,07	6145,44
346,276	6395,29
346,482	6505,88
346,688	6530,46
346,894	6227,36
347,1	6327,71
347,307	6264,22
347,513	6243,74
347,719	6327,71
347,925	6192,55
348,131	6448,54
348,337	6452,64
348,543	6522,27
348,749	6258,08
348,955	6466,97
349,161	6223,27
349,367	6618,52
349,573	6714,78
349,779	6837,66
349,985	6966,68
350,191	7370,13
350,397	7136,66
350,603	7259,54
350,809	6882,71
351,015	7157,14
351,221	6970,77
351,427	7095,7
351,633	6774,17
351,839	7030,16
352,045	6731,16
352,251	6792,6
352,457	6655,39
352,663	7048,6
352,869	6860,18
353,075	7171,47
353,28	7423,37
353,486	7742,86
353,692	7826,82
353,898	7722,38
354,104	7865,74
354,31	7845,26
354,515	7900,55
354,721	8054,15
354,927	7835,02
355,133	7867,78
355,339	7581,07
355,544	7796,11
355,75	7277,97
355,956	7185,81
356,162	6858,14
356,367	6743,45
356,573	6376,86
356,779	6260,13
356,984	6151,59
357,19	6038,95
357,396	5963,17
357,602	6069,67
357,807	5842,34
358,013	5785
358,218	5516,72
358,424	5852,58
358,63	6161,83
358,835	6643,1
359,041	6833,56
359,247	7333,26
359,452	7808,39
359,658	7751,05
359,863	7667,08
360,069	7550,35
360,274	7271,83
360,48	7243,15
360,685	7138,71
360,891	7060,88
361,097	7064,98
361,302	7155,09
361,508	7335,31
361,713	7030,16
361,918	7564,68
362,124	7740,81
362,329	8009,09
362,535	8217,99
362,74	7744,91
362,946	8058,25
363,151	8072,58
363,357	8056,2
363,562	8041,86
363,767	8236,42
363,973	8203,65
364,178	8136,07
364,383	8451,46
364,589	8560
364,794	8525,18
365	9037,17
365,205	9446,77
365,41	9663,85
365,615	9932,14
365,821	10057,06
366,026	10032,49
366,231	9887,08
366,437	10171,75
366,642	10106,21
366,847	10007,91
367,052	9807,21
367,258	9887,08
367,463	9708,91
367,668	9448,82
367,873	9518,45
368,078	9254,26
368,284	9528,69
368,489	9594,22
368,694	9622,89
368,899	9729,39
369,104	10210,66
369,309	10272,1
369,515	10433,89
369,72	9985,38
369,925	10077,54
370,13	9950,57
370,335	9846,12
370,54	9844,07
370,745	9901,42
370,95	9688,43
371,155	9981,29
371,36	9610,61
371,565	9602,41
371,77	9352,56
371,975	9018,74
372,18	8691,07
372,385	8629,63
372,59	8611,2
372,795	8379,78
373	8023,43
373,205	7861,64
373,41	7662,99
373,615	8174,98
373,82	7710,09
374,025	8146,31
374,23	7769,48
374,435	7845,26
374,64	7966,09
374,845	8283,52
375,05	8740,22
375,254	8940,92
375,459	9313,65
375,664	9123,19
375,869	9137,52
376,074	9207,16
376,279	9129,33
376,483	9567,6
376,688	9581,93
376,893	9989,48
377,098	10362,21
377,303	10515,81
377,507	10927,45
377,712	11316,56
377,917	10831,19
378,122	10931,55
378,326	10505,57
378,531	10087,78
378,736	9528,69
378,94	9481,58
379,145	9409,9
379,35	9196,92
379,554	9373,04
379,759	9411,95
379,964	9303,41
380,168	9549,17
380,373	9534,83
380,578	9768,3
380,782	9520,49
380,987	9358,71
381,191	8596,86
381,396	8045,96
381,601	7994,76
381,805	7693,71
382,01	6944,15
382,214	6464,93
382,419	6286,75
382,623	6387,1
382,828	5997,99
383,032	6241,7
383,237	6174,11
383,441	6122,91
383,646	6768,02
383,85	7294,35
384,055	7462,29
384,259	8058,25
384,464	8154,5
384,668	8148,36
384,872	8359,3
385,077	8070,53
385,281	8037,77
385,486	7955,85
385,69	7916,94
385,894	8516,99
386,099	8263,04
386,303	8275,33
386,507	8420,74
386,712	8326,53
386,916	8273,28
387,12	8295,81
387,325	8355,2
387,529	8445,31
387,733	8109,44
387,937	8523,13
388,142	8451,46
388,346	8670,59
388,55	8664,44
388,754	9323,89
388,959	9307,51
389,163	9747,82
389,367	10128,74
389,571	10050,92
389,775	10413,41
389,98	10521,95
390,184	10466,66
390,388	11181,4
390,592	10876,25
390,796	10814,81
391	10886,49
391,204	11005,27
391,409	10489,18
391,613	10349,92
391,817	9657,71
392,021	9071,99
392,225	8232,32
392,429	7462,29
392,633	6577,56
392,837	6294,94
393,041	5832,1
393,245	6063,52
393,449	6458,78
393,653	7048,6
393,857	7808,39
394,061	8557,95
394,265	9375,09
394,469	10081,64
394,673	10466,66
394,877	10634,59
395,081	10943,83
395,285	10505,57
395,489	9528,69
395,693	9518,45
395,896	8439,17
396,1	7718,28
396,304	7372,18
396,508	7191,95
396,712	7062,93
396,916	7984,52
397,12	8727,93
397,323	9766,25
397,527	10716,51
397,731	12039,5
397,935	12383,56
398,139	12934,46
398,342	13819,18
398,546	13759,79
398,75	13892,91
398,954	14376,23
399,157	13823,28
399,361	14296,36
399,565	14372,13
399,769	14519,59
399,972	14529,83
400,176	14859,55
400,38	14869,79
400,583	15437,08
400,787	15459,6
400,991	15131,93
401,194	15697,17
401,398	15846,67
401,601	15609,11
401,805	15355,16
402,009	15959,31
402,212	15422,74
402,416	15723,79
402,619	15912,21
402,823	15660,31
403,026	15447,32
403,23	15068,44
403,433	15463,7
403,637	14966,04
403,841	15193,37
404,044	15535,38
404,247	15971,6
404,451	15451,41
404,654	14996,76
404,858	15410,45
405,061	15340,82
405,265	15312,15
405,468	15793,42
405,672	14703,9
405,875	14546,21
406,078	15041,82
406,282	15158,55
406,485	14425,38
406,689	15416,6
406,892	15619,35
407,095	14943,52
407,299	15041,82
407,502	15715,6
407,705	15811,85
407,909	16092,43
408,112	16604,42
408,315	16852,22
408,518	16901,37
408,722	16358,66
408,925	15949,07
409,128	16016,65
409,331	15811,85
409,535	15629,59
409,738	15435,03
409,941	15342,87
410,144	15451,41
410,347	16325,89
410,551	16254,22
410,754	16663,81
410,957	16897,28
411,16	17386,74
411,363	17192,19
411,566	17618,16
411,769	17661,17
411,973	17687,79
412,176	17313,02
412,379	17829,1
412,582	17335,54
412,785	17044,73
412,988	17818,86
413,191	17233,15
413,394	16684,29
413,597	17503,48
413,8	17376,5
414,003	17562,87
414,206	17190,14
414,409	17847,54
414,612	16807,17
414,815	17245,43
415,018	17153,27
415,221	17452,28
415,424	17636,59
415,627	17667,31
415,83	17450,23
416,033	17589,49
416,235	18064,62
416,438	17853,68
416,641	17157,37
416,844	17183,99
417,047	17304,82
417,25	16682,24
417,453	17069,31
417,655	16784,64
417,858	17200,38
418,061	16684,29
418,264	16678,15
418,467	17263,86
418,669	16893,18
418,872	17024,25
419,075	16884,99
419,278	16768,26
419,48	17001,72
419,683	17362,17
419,886	17157,37
420,089	18533,61
420,291	17458,42
420,494	17966,32
420,697	17698,03
420,899	18003,18
421,102	17030,4
421,305	17806,58
421,507	17011,96
421,71	17394,93
421,912	17188,09
422,115	17200,38
422,318	16098,57
422,52	16827,65
422,723	17100,03
422,925	17204,47
423,128	16764,16
423,33	16907,52
423,533	16532,74
423,735	17372,41
423,938	17470,71
424,14	17108,22
424,343	16874,75
424,545	17497,33
424,748	16887,04
424,95	16913,66
425,153	17540,34
425,355	17378,55
425,558	17562,87
425,76	17108,22
425,962	16848,13
426,165	16477,44
426,367	17612,02
426,57	17464,57
426,772	16563,46
426,974	16831,74
427,177	16102,67
427,379	16553,22
427,581	16657,67
427,784	17034,49
427,986	15832,33
428,188	16520,45
428,39	16841,98
428,593	15742,22
428,795	16274,7
428,997	15400,21
429,2	14423,33
429,402	14636,32
429,604	14124,33
429,806	13270,33
430,008	13258,04
430,211	13663,54
430,413	14093,61
430,615	14636,32
430,817	15754,51
431,019	16676,1
431,221	17214,71
431,423	17411,32
431,626	17796,34
431,828	18023,66
432,03	17941,74
432,232	17777,9
432,434	18500,84
432,636	19297,5
432,838	18023,66
433,04	17958,13
433,242	18330,86
433,444	17102,08
433,646	17448,18
433,848	18175,21
434,05	18148,59
434,252	18226,41
434,454	18480,36
434,656	19041,5
434,858	19752,15
435,06	19641,56
435,262	19416,28
435,464	20542,66
435,666	20499,66
435,868	19772,63
436,07	20747,46
436,271	21544,12
436,473	20303,05
436,675	20503,75
436,877	19821,78
437,079	18775,27
437,281	19340,5
437,482	19274,97
437,684	19336,41
437,886	18410,73
438,088	18072,81
438,29	18343,14
438,491	18900,19
438,693	18719,97
438,895	19573,97
439,097	21120,19
439,298	19832,02
439,5	19637,46
439,702	19760,34
439,903	19236,06
440,105	20202,7
440,307	20925,63
440,508	20737,22
440,71	21499,06
440,912	21048,51
441,113	20831,43
441,315	21277,88
441,517	21931,19
441,718	22238,38
441,92	21865,65
442,121	21214,4
442,323	22172,85
442,524	21712,05
442,726	21869,75
442,928	21494,97
443,129	22398,12
443,331	20896,96
443,532	21537,98
443,734	21818,55
443,935	22224,04
444,136	20935,87
444,338	22078,64
444,539	21642,42
444,741	21222,59
444,942	20518,09
445,144	20581,57
445,345	20942,02
445,546	21572,79
445,748	20534,47
445,949	20571,33
446,151	21134,53
446,352	21802,16
446,553	21712,05
446,755	21413,05
446,956	22715,56
447,157	22566,06
447,359	22209,71
447,56	22641,83
447,761	22434,99
447,962	22756,52
448,164	23092,38
448,365	21701,81
448,566	22686,89
448,767	21920,95
448,969	23032,99
449,17	22791,33
449,371	22330,54
449,572	23348,38
449,773	23717,01
449,974	23612,57
450,176	23717,01
450,377	24603,78
450,578	24306,83
450,779	23174,3
450,98	22230,19
451,181	22437,03
451,382	22568,1
451,583	22652,07
451,784	22166,7
451,986	23657,62
452,187	21519,54
452,388	21564,6
452,589	20548,81
452,79	22422,7
452,991	21007,55
453,192	22359,21
453,393	22275,24
453,594	23547,03
453,795	22062,26
453,995	22174,89
454,196	21843,12
454,397	22576,3
454,598	22287,53
454,799	23162,01
455	22715,56
455,201	22944,93
455,402	23084,19
455,603	22961,31
455,804	24581,26
456,004	24915,08
456,205	23577,75
456,406	23233,69
456,607	23211,17
456,808	23751,83
457,008	23207,07
457,209	22865,06
457,41	24956,04
457,611	23315,61
457,811	23692,44
458,012	23954,58
458,213	23999,63
458,414	23295,13
458,614	23456,92
458,815	23688,34
459,016	23522,46
459,216	24130,7
459,417	24001,68
459,618	24534,15
459,818	24583,3
460,019	23956,63
460,22	24515,72
460,42	25027,71
460,621	23841,94
460,821	25357,44
461,022	24773,77
461,223	23999,63
461,423	25171,07
461,624	25277,57
461,824	25914,48
462,025	24454,28
462,225	26121,33
462,426	26741,86
462,626	25658,49
462,827	25465,98
463,027	24966,28
463,228	25865,33
463,428	24802,44
463,628	25271,42
463,829	25730,17
464,029	24810,63
464,23	25717,88
464,43	24841,35
464,63	25126,02
464,831	26002,55
465,031	26188,91
465,231	26668,14
465,432	26874,98
465,632	25955,44
465,832	25085,06
466,033	26432,62
466,233	26131,57
466,433	25373,82
466,634	26209,39
466,834	27327,58
467,034	26084,47
467,234	27819,1
467,435	26801,26
467,635	28300,37
467,835	25861,24
468,035	27659,35
468,235	27251,81
468,436	27223,14
468,636	27315,3
468,836	27208,8
469,036	28617,8
469,236	27329,63
469,436	26784,87
469,636	27651,16
469,836	27452,51
470,037	27753,56
470,237	27739,22
470,437	28189,78
470,637	27649,11
470,837	29056,07
471,037	28972,1
471,237	30477,36
471,437	30108,72
471,637	30741,55
471,837	31390,75
472,037	30446,64
472,237	30254,13
472,437	31091,75
472,637	31470,62
472,837	31286,31
473,036	30491,69
473,236	31005,73
473,436	30975,02
473,636	32138,26
473,836	31423,52
474,036	33268,74
474,236	33317,89
474,436	33620,99
474,635	33131,53
474,835	32719,88
475,035	34071,54
475,235	34431,99
475,435	33946,62
475,634	33911,8
475,834	34823,15
476,034	34687,98
476,234	35353,57
476,433	35425,25
476,633	35560,42
476,833	36914,12
477,033	36824,01
477,232	37901,25
477,432	36690,9
477,632	37745,6
477,831	37426,12
478,031	37129,16
478,231	38388,66
478,43	38380,47
478,63	38742,96
478,829	38962,09
479,029	39816,1
479,229	40436,63
479,428	40694,68
479,628	40278,94
479,827	40758,16
480,027	40948,62
480,226	40743,83
480,426	42193,79
480,625	41157,52
480,825	43033,46
481,024	42957,68
481,224	43705,19
481,423	43426,67
481,623	43350,89
481,822	43930,47
482,021	44475,23
482,221	44878,68
482,42	43598,69
482,62	44618,58
482,819	44071,78
483,018	44450,65
483,218	44180,32
483,417	44850
483,616	44413,79
483,816	43930,47
484,015	44356,44
484,214	44540,76
484,414	44280,67
484,613	42328,95
484,812	42224,51
485,011	41231,24
485,211	39930,78
485,41	39607,2
485,609	39781,28
485,808	40012,7
486,008	41239,43
486,207	41184,14
486,406	42275,71
486,605	42025,85
486,804	43377,51
487,003	44157,79
487,203	45603,66
487,402	45376,33
487,601	45609,8
487,8	45726,53
487,999	46129,98
488,198	46154,56
488,397	46562,11
488,596	47104,82
488,795	47770,41
488,994	48288,54
489,193	48415,52
489,392	49437,45
489,591	49369,87
489,79	49232,66
489,989	49214,23
490,188	48984,85
490,387	48773,91
490,586	48130,85
490,785	48368,41
490,984	47600,43
491,183	47708,97
491,382	46476,09
491,581	47780,65
491,779	47674,15
491,978	48700,18
492,177	48947,99
492,376	49548,04
492,575	49498,89
492,774	49199,89
492,972	49361,68
493,171	49484,56
493,37	49883,91
493,569	50604,8
493,768	50410,24
493,966	50686,71
494,165	50848,5
494,364	51292,91
494,563	50199,3
494,761	50424,57
494,96	50455,29
495,159	50860,79
495,357	49681,16
495,556	50590,46
495,755	50154,24
495,953	50871,03
496,152	50563,84
496,35	50934,52
496,549	50408,19
496,748	50576,12
496,946	50074,37
497,145	49392,4
497,343	49120,02
497,542	49013,52
497,74	48304,93
497,939	49277,71
498,137	49277,71
498,336	49386,25
498,534	48722,71
498,733	49251,09
498,931	49523,47
499,13	48909,08
499,328	48059,17
499,527	48245,54
499,725	47438,64
499,924	47581,99
500,122	46621,5
500,32	47373,1
500,519	46486,33
500,717	45822,79
500,915	45962,05
501,114	46576,44
501,312	46005,06
501,51	46951,22
501,709	46674,74
501,907	47461,16
502,105	46678,84
502,304	47153,97
502,502	46342,97
502,7	46146,37
502,898	45362
503,097	45345,61
503,295	44925,78
503,493	45531,98
503,691	45927,24
503,889	46207,81
504,088	46537,53
504,286	47080,24
504,484	46775,09
504,682	47455,02
504,88	47430,44
505,078	48388,89
505,276	48020,26
505,474	48155,43
505,672	47590,19
505,871	47553,32
506,069	47784,74
506,267	47473,45
506,465	47254,32
506,663	46736,18
506,861	46340,92
507,059	46459,71
507,257	46134,08
507,455	46795,57
507,653	47149,87
507,851	47606,57
508,049	46945,08
508,246	47952,68
508,444	47426,35
508,642	48505,63
508,84	48012,07
509,038	48286,5
509,236	47715,11
509,434	47702,82
509,632	47876,9
509,829	48280,35
510,027	47850,28
510,225	48507,68
510,423	48872,21
510,621	48587,55
510,818	49713,93
511,016	49720,07
511,214	49130,26
511,412	49480,46
511,609	48765,72
511,807	48339,74
512,005	47764,26
512,203	48415,52
512,4	48403,23
512,598	48317,21
512,796	48073,51
512,993	48540,44
513,191	48319,26
513,389	47618,86
513,586	48724,76
513,784	48278,3
513,981	48235,3
514,179	48872,21
514,377	48741,14
514,574	48812,82
514,772	49025,81
514,969	49122,07
515,167	48882,45
515,364	48239,39
515,562	46981,94
515,759	46289,73
515,957	44596,06
516,154	44661,59
516,352	44393,31
516,549	44436,31
516,746	45099,86
516,944	45845,32
517,141	45613,9
517,339	45521,74
517,536	46236,48
517,733	45511,5
517,931	46797,62
518,128	47444,78
518,325	47282,99
518,523	48882,45
518,72	48712,47
518,917	49914,63
519,115	49863,43
519,312	50158,34
519,509	50080,52
519,707	50455,29
519,904	50340,61
520,101	51290,87
520,298	50944,76
520,495	51274,48
520,693	51864,3
520,89	51555,05
521,087	51671,79
521,284	52036,33
521,481	51329,78
521,678	51395,31
521,876	51352,3
522,073	50713,34
522,27	51020,53
522,467	51663,6
522,664	52034,28
522,861	52837,08
523,058	52794,07
523,255	53156,56
523,452	53119,7
523,649	53508,82
523,846	52914,9
524,043	53328,59
524,24	53201,62
524,437	52798,17
524,634	53166,8
524,831	52814,55
525,028	52320,99
525,225	52062,95
525,422	50934,52
525,619	50277,12
525,816	49228,56
526,013	49376,01
526,209	49060,63
526,406	49298,19
526,603	49543,95
526,8	50354,94
526,997	50662,14
527,194	52083,43
527,39	51745,51
527,587	52204,26
527,784	52628,19
527,981	53398,23
528,177	53385,94
528,374	53922,51
528,571	53039,83
528,768	53387,99
528,964	53494,48
529,161	53672,65
529,358	53594,83
529,554	53680,84
529,751	54102,73
529,948	54510,27
530,144	53942,98
530,341	54467,26
530,537	54821,56
530,734	54457,03
530,931	53424,85
531,127	53469,9
531,324	53101,27
531,52	52171,49
531,717	51589,87
531,913	51610,35
532,11	51276,53
532,306	51708,65
532,503	52144,87
532,699	52247,27
532,896	52277,99
533,092	51989,22
533,289	52157,16
533,485	52359,91
533,682	52544,22
533,878	52785,88
534,074	52286,18
534,271	52906,71
534,467	53029,59
534,664	53512,91
534,86	53557,97
535,056	53564,11
535,253	53181,14
535,449	53181,14
535,645	52161,25
535,841	52202,21
536,038	51421,94
536,234	51069,68
536,43	52065
536,626	52071,14
536,823	51964,65
537,019	52462,3
537,215	51927,78
537,411	52341,47
537,607	51997,41
537,804	51972,84
538	51784,43
538,196	51669,74
538,392	51075,83
538,588	50670,33
538,784	50326,27
538,98	50459,39
539,176	49652,49
539,373	49744,65
539,569	49142,55
539,765	48671,51
539,961	49201,94
540,157	48788,25
540,353	48612,12
540,549	49128,21
540,745	49175,31
540,941	49605,39
541,137	49679,11
541,333	49302,29
541,528	48947,99
541,724	49206,03
541,92	49459,98
542,116	49781,51
542,312	49265,42
542,508	49535,76
542,704	49589
542,9	49419,02
543,096	49943,3
543,291	50266,88
543,487	49949,45
543,683	50008,84
543,879	49359,63
544,075	49120,02
544,27	50002,69
544,466	50019,08
544,662	49877,77
544,858	49650,44
545,053	49400,59
545,249	49785,61
545,445	49457,93
545,64	48933,65
545,836	49208,08
546,032	49113,87
546,227	49502,99
546,423	48655,13
546,619	48509,72
546,814	48687,9
547,01	48562,97
547,205	48794,39
547,401	48390,94
547,597	49081,11
547,792	48632,6
547,988	49193,75
548,183	48296,74
548,379	49017,62
548,574	48915,22
548,77	49210,13
548,965	48565,02
549,161	48982,8
549,356	48685,85
549,552	49222,42
549,747	48386,85
549,942	48548,64
550,138	48644,89
550,333	48188,19
550,529	48857,88
550,724	48870,17
550,919	47960,87
551,115	49191,7
551,31	48485,15
551,505	48552,73
551,701	48046,88
551,896	47967,01
552,091	48085,79
552,287	47809,32
552,482	47516,46
552,677	47784,74
552,872	47452,97
553,067	48149,28
553,263	48046,88
553,458	48468,76
553,653	47897,38
553,848	48560,92
554,043	47399,72
554,239	47938,34
554,434	48061,22
554,629	47911,72
554,824	47536,94
555,019	47461,16
555,214	47059,76
555,409	46676,79
555,604	46852,92
555,799	46394,17
555,994	45966,15
556,189	46015,3
556,384	46011,2
556,579	46009,15
556,774	45798,21
556,969	46058,31
557,164	45798,21
557,359	45386,57
557,554	44923,73
557,749	44829,52
557,944	44155,74
558,139	44057,44
558,334	44114,78
558,529	44049,25
558,724	44213,09
558,918	44708,69
559,113	44092,26
559,308	44493,66
559,503	44497,75
559,698	44858,2
559,893	44839,76
560,087	44911,44
560,282	44768,08
560,477	44315,48
560,672	44086,11
560,866	44254,04
561,061	43772,77
561,256	44254,04
561,45	43805,54
561,645	44254,04
561,84	44229,47
562,034	43809,64
562,229	44026,72
562,424	44532,57
562,618	43787,11
562,813	43774,82
563,008	43420,52
563,202	43668,33
563,397	43873,12
563,591	43506,54
563,786	43340,65
563,98	43848,55
564,175	42986,35
564,369	42572,66
564,564	42779,51
564,758	42658,68
564,953	42443,64
565,147	42279,8
565,342	41669,51
565,536	42378,11
565,731	41999,23
565,925	42988,4
566,119	42359,67
566,314	42834,8
566,508	41876,35
566,703	42255,23
566,897	41599,88
567,091	41601,93
567,286	40975,25
567,48	40901,52
567,674	40315,8
567,868	40465,3
568,063	40151,96
568,257	40623
568,451	40430,49
568,646	39871,39
568,84	39748,51
569,034	39814,05
569,228	39504,81
569,422	40094,62
569,616	39113,64
569,811	39531,43
570,005	38970,29
570,199	39527,33
570,393	39379,88
570,587	39463,85
570,781	39054,25
570,975	39578,53
571,169	39537,57
571,364	40182,68
571,558	39660,45
571,752	40356,76
571,946	39728,03
572,14	40489,88
572,334	39556
572,528	40217,5
572,722	39975,84
572,916	40113,05
573,109	39476,13
573,303	39766,95
573,497	39648,16
573,691	39582,63
573,885	39031,72
574,079	39515,05
574,273	39248,81
574,467	38816,69
574,661	39070,64
574,854	38822,83
575,048	38595,51
575,242	38806,45
575,436	38898,61
575,63	38980,53
575,823	38785,97
576,017	39115,69
576,211	38474,68
576,405	39230,38
576,598	38808,5
576,792	38945,71
576,986	38472,63
577,18	38147
577,373	37778,37
577,567	38288,31
577,761	38314,94
577,954	38783,92
578,148	38773,68
578,341	38484,92
578,535	38697,91
578,729	39437,22
578,922	38562,74
579,116	39177,13
579,309	38640,56
579,503	39242,67
579,696	39001
579,89	39474,09
580,083	39480,23
580,277	39605,16
580,47	39183,27
580,664	39224,23
580,857	39592,87
581,051	39850,91
581,244	39361,45
581,437	39889,82
581,631	39680,93
581,824	39771,04
582,018	39717,79
582,211	40039,33
582,404	39861,15
582,598	39773,09
582,791	39871,39
582,984	39883,68
583,178	39805,86
583,371	40432,54
583,564	39742,37
583,757	39836,58
583,951	39687,07
584,144	39541,67
584,337	38861,74
584,53	38851,5
584,723	38863,79
584,917	38892,46
585,11	38693,81
585,303	39201,71
585,496	37753,79
585,689	38503,35
585,882	38595,51
586,075	38132,67
586,268	37848
586,462	37696,45
586,655	37047,24
586,848	37159,88
587,041	35800,03
587,234	35681,25
587,427	34274,29
587,62	33629,18
587,813	32349,2
588,006	31274,02
588,199	30821,42
588,392	30620,72
588,585	30178,36
588,777	30469,17
588,97	30397,49
589,163	30868,52
589,356	31261,73
589,549	31679,52
589,742	31906,84
589,935	32484,37
590,128	32398,35
590,32	32480,27
590,513	32193,56
590,706	32496,66
590,899	31876,12
591,092	32576,53
591,284	32089,11
591,477	32791,56
591,67	32998,41
591,863	33332,23
592,055	33604,61
592,248	33625,09
592,441	33432,58
592,633	33698,81
592,826	32975,88
593,019	32965,64
593,211	32746,51
593,404	32166,93
593,596	31603,74
593,789	31904,79
593,982	32150,55
594,174	32306,2
594,367	32418,83
594,559	32906,25
594,752	32906,25
594,944	32955,4
595,137	33625,09
595,329	33571,84
595,522	33647,61
595,714	33766,4
595,907	33860,6
596,099	33391,62
596,292	33457,15
596,484	33887,23
596,676	33518,59
596,869	33508,35
597,061	33600,51
597,253	33762,3
597,446	33250,31
597,638	34274,29
597,83	33776,64
598,023	34001,91
598,215	34454,51
598,407	34284,53
598,6	34309,11
598,792	34634,74
598,984	33887,23
599,176	34268,15
599,369	34081,78
599,561	34870,25
599,753	34452,47
599,945	34305,01
600,137	34159,61
600,329	34626,54
600,522	34065,4
600,714	34305,01
600,906	34268,15
601,098	34561,01
601,29	33946,62
601,482	34345,97
601,674	34786,29
601,866	34806,76
602,058	34513,91
602,25	34980,84
602,442	34802,67
602,634	35150,82
602,826	34536,43
603,018	35187,69
603,21	35384,29
603,402	34913,26
603,594	34444,27
603,786	35292,13
603,978	34970,6
604,17	34903,02
604,362	35068,9
604,554	34581,49
604,745	34358,26
604,937	35050,47
605,129	34745,33
605,321	34247,67
605,513	34454,51
605,704	34464,75
605,896	34096,12
606,088	34474,99
606,28	34016,25
606,471	34409,46
606,663	34032,63
606,855	34391,03
607,047	33872,89
607,238	33905,66
607,43	33377,28
607,622	33848,32
607,813	33512,45
608,005	33631,23
608,197	33354,76
608,388	33432,58
608,58	33018,89
608,771	32934,92
608,963	32869,39
609,154	32799,76
609,346	32486,42
609,537	32560,14
609,729	32396,31
609,921	32926,73
610,112	32179,22
610,303	33065,99
610,495	32369,68
610,686	32650,25
610,878	32119,83
611,069	31849,5
611,261	31638,56
611,452	31745,05
611,643	31564,83
611,835	31685,66
612,026	31044,65
612,217	31214,63
612,409	31157,28
612,6	31351,84
612,791	30585,9
612,983	30626,86
613,174	30458,93
613,365	31071,27
613,557	30895,14
613,748	30786,6
613,939	30784,55
614,13	30745,64
614,321	30192,69
614,513	30839,85
614,704	30338,1
614,895	30186,55
615,086	29787,19
615,277	29987,89
615,468	29525,05
615,659	29400,13
615,851	29385,79
616,042	29658,17
616,233	29430,85
616,424	30057,53
616,615	29647,93
616,806	30194,74
616,997	29981,75
617,188	30385,2
617,379	30329,91
617,57	30463,02
617,761	30184,5
617,952	30157,88
618,143	30321,71
618,334	30489,65
618,524	30383,15
618,715	30489,65
618,906	30643,24
619,097	30581,81
619,288	30833,71
619,479	30815,27
619,67	30542,89
619,86	30712,88
620,051	30508,08
620,242	30565,42
620,433	30420,02
620,624	30596,14
620,814	30784,55
621,005	30671,92
621,196	30268,47
621,386	30592,05
621,577	30776,36
621,768	30569,52
621,958	30315,57
622,149	30944,3
622,34	31011,88
622,53	30352,43
622,721	30358,58
622,912	30708,78
623,102	30559,28
623,293	30739,5
623,483	30590
623,674	30557,23
623,864	30377,01
624,055	30518,32
624,245	30182,45
624,436	30516,27
624,626	30532,65
624,817	30256,18
625,007	30594,09
625,198	30841,9
625,388	30358,58
625,579	30925,86
625,769	30553,13
625,959	30536,75
626,15	30370,86
626,34	29789,24
626,531	29512,77
626,721	29336,64
626,911	29123,65
627,101	29002,82
627,292	28810,31
627,482	29203,52
627,672	29467,71
627,863	29662,27
628,053	29324,35
628,243	29490,24
628,433	29549,63
628,623	29641,79
628,814	29387,84
629,004	29488,19
629,194	29885,5
629,384	29754,43
629,574	29523,01
629,764	29735,99
629,955	29613,12
630,145	29635,64
630,335	29819,96
630,525	29529,15
630,715	29473,85
630,905	29682,75
631,095	29375,55
631,285	29797,43
631,475	29879,35
631,665	30293,04
631,855	29711,42
632,045	29987,89
632,235	30032,95
632,425	29987,89
632,615	29678,65
632,805	29938,74
632,994	29609,02
633,184	29969,46
633,374	29510,72
633,564	29996,09
633,754	30078,01
633,944	30327,86
634,133	29879,35
634,323	30090,29
634,513	29889,59
634,703	30028,85
634,893	29932,6
635,082	29668,41
635,272	29635,64
635,462	30245,94
635,651	30039,09
635,841	30014,52
636,031	30086,2
636,221	30155,83
636,41	30252,08
636,6	30098,48
636,789	29932,6
636,979	29957,17
637,169	30362,67
637,358	30108,72
637,548	29869,11
637,737	29840,44
637,927	29793,34
638,116	29916,22
638,306	29633,6
638,495	29551,68
638,685	29547,58
638,874	29660,22
639,064	28894,28
639,253	29615,16
639,443	29166,66
639,632	29430,85
639,822	28861,51
640,011	29047,88
640,2	28875,85
640,39	28800,07
640,579	29056,07
640,768	28838,98
640,958	28881,99
641,147	28951,62
641,336	28546,12
641,526	29047,88
641,715	29043,78
641,904	28947,53
642,093	28628,04
642,283	28423,25
642,472	28394,57
642,661	28560,46
642,85	28363,86
643,039	28701,77
643,228	28159,06
643,418	28456,01
643,607	28116,05
643,796	28054,61
643,985	28036,18
644,174	27604,06
644,363	27294,82
644,552	27413,6
644,741	26475,63
644,93	27047,01
645,119	26563,69
645,308	26420,33
645,497	25945,2
645,686	25597,05
645,875	25402,49
646,064	24945,8
646,253	24519,82
646,442	24808,58
646,631	24755,33
646,82	24511,63
647,009	24333,45
647,198	24245,39
647,387	24319,12
647,575	24202,38
647,764	24194,19
647,953	23948,43
648,142	23995,54
648,331	23970,96
648,519	23780,5
648,708	24519,82
648,897	24292,49
649,086	24982,66
649,274	25203,84
649,463	25347,2
649,652	24896,64
649,84	25103,49
650,029	24345,74
650,218	24681,61
650,406	23887
650,595	23983,25
650,784	23805,08
650,972	24380,56
651,161	24274,06
651,349	24898,69
651,538	24888,45
651,726	24839,3
651,915	24700,04
652,104	24738,95
652,292	24964,23
652,481	25136,26
652,669	24560,78
652,857	25373,82
653,046	24964,23
653,234	24646,79
653,423	24171,66
653,611	24282,25
653,8	24261,77
653,988	23862,42
654,176	23393,44
654,365	23141,53
654,553	22627,49
654,741	22074,54
654,93	21255,36
655,118	21013,7
655,306	21062,85
655,494	21415,1
655,683	20980,93
655,871	21667
656,059	22070,45
656,247	22301,87
656,436	22791,33
656,624	23186,59
656,812	23020,7
657	23280,8
657,188	23436,44
657,376	23704,73
657,564	23817,36
657,753	24149,14
657,941	23663,77
658,129	24052,88
658,317	24079,5
658,505	24018,07
658,693	24220,81
658,881	24368,27
659,069	24358,03
659,257	24442
659,445	24444,04
659,633	24726,66
659,821	24552,59
660,009	24753,29
660,197	24738,95
660,384	24845,44
660,572	24999,04
660,76	25050,24
660,948	25083,01
661,136	24788,1
661,324	24896,64
661,512	24892,55
661,699	24491,15
661,887	24966,28
662,075	24867,97
662,263	24450,19
662,451	24446,09
662,638	24509,58
662,826	24229,01
663,014	24560,78
663,201	24407,18
663,389	24255,63
663,577	24382,6
663,764	24507,53
663,952	24640,65
664,14	24542,35
664,327	24218,77
664,515	24554,63
664,702	24007,83
664,89	24532,11
665,078	24259,73
665,265	24061,07
665,453	24067,22
665,64	23835,8
665,828	24122,51
666,015	23921,81
666,203	24136,85
666,39	24259,73
666,578	24067,22
666,765	23805,08
666,952	23723,16
667,14	23766,17
667,327	23970,96
667,515	23749,78
667,702	23401,63
667,889	24018,07
668,077	23696,53
668,264	23559,32
668,451	23823,51
668,638	23522,46
668,826	23422,11
669,013	23717,01
669,2	23495,83
669,388	23614,62
669,575	22867,11
669,762	23282,84
669,949	22785,19
670,136	23409,82
670,323	22721,7
670,511	23119,01
670,698	23020,7
670,885	22752,42
671,072	22506,66
671,259	23071,9
671,446	22932,64
671,633	22611,11
671,82	22559,91
672,007	22805,67
672,194	22463,66
672,381	22824,1
672,568	22637,73
672,755	22731,94
672,942	22416,55
673,129	22641,83
673,316	22432,94
673,503	22381,74
673,69	22187,18
673,877	22394,03
674,064	22363,31
674,251	22172,85
674,437	22383,79
674,624	21953,71
674,811	22389,93
674,998	22199,47
675,185	21888,18
675,372	22148,27
675,558	21984,43
675,745	21699,76
675,932	21701,81
676,119	22058,16
676,305	21732,53
676,492	21695,67
676,679	21509,3
676,865	21888,18
677,052	21857,46
677,239	21929,14
677,425	21601,46
677,612	21963,95
677,798	21380,28
677,985	21292,22
678,172	21302,46
678,358	21169,34
678,545	21322,94
678,731	21284,03
678,918	21112
679,104	21200,06
679,291	21243,07
679,477	21081,28
679,664	20937,92
679,85	21163,2
680,036	20755,65
680,223	21017,79
680,409	21015,74
680,596	20591,81
680,782	20720,84
680,968	20700,36
681,155	20577,48
681,341	20622,53
681,527	20456,65
681,714	20802,75
681,9	20544,71
682,086	20587,72
682,272	20362,44
682,459	20315,34
682,645	20053,2
682,831	19875,02
683,017	19807,44
683,204	19924,18
683,39	20016,33
683,576	20104,4
683,762	19653,84
683,948	20163,79
684,134	19580,12
684,32	19803,35
684,506	19518,68
684,693	19641,56
684,879	18797,79
685,065	18498,79
685,251	17294,58
685,437	16788,74
685,623	15291,67
685,809	14691,62
685,995	13864,24
686,181	13757,74
686,366	13612,34
686,552	13940,01
686,738	14116,14
686,924	14441,76
687,11	14646,56
687,296	14783,77
687,482	14568,74
687,668	14664,99
687,853	14155,05
688,039	14703,9
688,225	14193,96
688,411	14626,08
688,597	14720,29
688,782	14751,01
688,968	14925,08
689,154	15054,11
689,34	15039,77
689,525	15252,76
689,711	15375,64
689,897	15330,58
690,082	15545,62
690,268	15412,5
690,454	15435,03
690,639	15621,39
690,825	15564,05
691,01	15242,52
691,196	15183,13
691,381	15203,61
691,567	14804,25
691,753	15041,82
691,938	14505,25
692,124	14628,13
692,309	14130,47
692,494	14128,42
692,68	13962,54
692,865	14107,94
693,051	13743,41
693,236	13763,89
693,422	13806,89
693,607	13944,11
693,792	13866,28
693,978	13878,57
694,163	14103,85
694,348	14150,95
694,534	14359,84
694,719	14370,08
694,904	14550,31
695,089	14970,14
695,275	15355,16
695,46	15443,22
695,645	15602,96
695,83	15789,33
696,016	15750,42
696,201	15879,44
696,386	15674,64
696,571	15752,46
696,756	15584,53
696,941	15658,26
697,126	15207,7
697,311	15009,05
697,497	14546,21
697,682	14572,83
697,867	14572,83
698,052	14310,69
698,237	14200,1
698,422	14384,42
698,607	14376,23
698,792	14075,18
698,977	13851,95
699,162	13952,3
699,347	13661,49
699,531	13706,54
699,716	13540,66
699,901	13548,85
700,086	13464,88
700,271	13532,47
700,456	13434,16
700,641	13569,33
700,825	13727,02
701,01	13604,14
701,195	13536,56
701,38	13610,29
701,565	13571,38
701,749	14019,88
701,934	13966,63
702,119	14191,91
702,303	14271,78
702,488	14107,94
702,673	14148,9
702,857	14544,16
703,042	14509,35
703,227	14753,05
703,411	14546,21
703,596	14476,58
703,78	14347,56
703,965	14409
704,15	14157,1
704,334	14529,83
704,519	14120,23
704,703	14116,14
704,888	14157,1
705,072	14503,2
705,257	14292,26
705,441	14382,37
705,625	14374,18
705,81	14140,71
705,994	14368,04
706,179	14456,1
706,363	14521,63
706,547	14748,96
706,732	14542,11
706,916	14312,74
707,1	14392,61
707,285	14791,97
707,469	14386,47
707,653	14558,5
707,837	14503,2
708,022	14529,83
708,206	14382,37
708,39	14572,83
708,574	14832,93
708,759	14417,19
708,943	14282,02
709,127	14331,17
709,311	14263,59
709,495	14437,67
709,679	14554,4
709,863	14449,96
710,047	14452
710,231	14740,77
710,415	14345,51
710,6	14515,49
710,784	14345,51
710,968	14484,77
711,152	14314,79
711,336	14503,2
711,519	14314,79
711,703	14224,68
711,887	14021,93
712,071	14329,13
712,255	13878,57
712,439	14060,84
712,623	14048,55
712,807	13917,48
712,991	13897
713,174	13610,29
713,358	13489,46
713,542	13665,58
713,726	13323,57
713,91	13180,21
714,093	13274,42
714,277	13053,24
714,461	12791,1
714,645	12391,75
714,828	12340,55
715,012	11732,3
715,196	11138,39
715,379	10507,62
715,563	9768,3
715,747	9452,91
715,93	8746,36
716,114	8453,5
716,297	8207,75
716,481	7761,29
716,664	7445,9
716,848	7515,53
717,031	7298,45
717,215	6942,1
717,398	6878,62
717,582	6694,3
717,765	6442,4
717,949	6700,44
718,132	6448,54
718,316	6143,39
718,499	6159,78
718,682	6047,14
718,866	6231,46
719,049	6372,77
719,233	6688,15
719,416	6948,25
719,599	7411,09
719,782	7916,94
719,966	8369,54
720,149	8793,47
720,332	8983,93
720,515	9682,28
720,699	9442,67
720,882	9729,39
721,065	9917,8
721,248	10001,77
721,431	9545,07
721,615	9495,92
721,798	9110,9
721,981	8689,02
722,164	8394,11
722,347	8072,58
722,53	7916,94
722,713	7564,68
722,896	7589,26
723,079	7632,27
723,262	7450
723,445	7284,11
723,628	7228,82
723,811	7077,27
723,994	7194
724,177	7241,11
724,36	7359,89
724,543	7181,71
724,726	7181,71
724,909	7333,26
725,091	7298,45
725,274	7392,66
725,457	7486,86
725,64	7445,9
725,823	7480,72
726,006	7402,9
726,188	7073,17
726,371	7150,99
726,554	6997,4
726,737	7450
726,919	7464,33
727,102	7830,92
727,285	7660,94
727,467	7599,5
727,65	7509,39
727,833	7298,45
728,015	7226,77
728,198	7294,35
728,38	7425,42
728,563	7589,26
728,746	7505,29
728,928	7368,08
729,111	7353,74
729,293	7351,7
729,476	7267,73
729,658	7493,01
729,841	7411,09
730,023	7738,76
730,205	7576,97
730,388	7843,21
730,57	7857,54
730,753	8201,6
730,935	8603
731,117	8959,35
731,3	8942,97
731,482	9506,16
731,664	9489,78
731,847	9514,35
732,029	9526,64
732,211	10120,55
732,394	9954,66
732,576	10198,37
732,758	10134,89
732,94	10405,22
733,122	10173,8
733,305	10413,41
733,487	10089,83
733,669	10282,34
733,851	10294,63
734,033	10280,29
734,215	10083,69
734,397	10026,34
734,58	10020,2
734,762	9848,17
734,944	9923,94
735,126	9799,02
735,308	9780,59
735,49	10052,97
735,672	10128,74
735,854	10126,69
736,036	10194,28
736,218	10227,04
736,399	10462,56
736,581	10589,53
736,763	10394,98
736,945	10405,22
737,127	10446,18
737,309	10536,29
737,491	10454,37
737,672	10268
737,854	10143,08
738,036	10433,89
738,218	10335,59
738,4	10632,54
738,581	10620,25
738,763	10728,8
738,945	10757,47
739,127	10835,29
739,308	10636,64
739,49	10663,26
739,672	10757,47
739,853	10968,41
740,035	10540,38
740,216	11017,56
740,398	10829,15
740,58	10589,53
740,761	10917,21
740,943	10790,24
741,124	11033,94
741,306	10876,25
741,487	10933,59
741,669	11031,9
741,85	10968,41
742,032	10925,4
742,213	10845,53
742,394	11298,13
742,576	10868,06
742,757	11003,22
742,939	11154,77
743,12	10870,11
743,301	10956,12
743,483	11076,95
743,664	10909,02
743,845	11054,42
744,027	10947,93
744,208	11128,15
744,389	10876,25
744,57	11068,76
744,752	10956,12
744,933	11144,53
745,114	10970,46
745,295	11068,76
745,476	11156,82
745,657	11238,74
745,839	10966,36
746,02	10827,1
746,201	10947,93
746,382	10802,52
746,563	10839,39
746,744	10937,69
746,925	10980,7
747,106	10898,78
747,287	10728,8
747,468	11009,37
747,649	10829,15
747,83	10861,91
748,011	10851,67
748,192	11105,62
748,373	10745,18
748,554	10788,19
748,735	11171,16
748,915	11038,04
749,096	10960,22
749,277	10829,15
749,458	10939,74
749,639	10906,97
749,82	10990,94
750	11095,38
750,181	10900,83
750,362	11001,18
750,543	11222,36
750,723	11083,09
750,904	10868,06
751,085	11232,6
751,265	11101,53
751,446	11273,56
751,627	11302,23
751,807	11449,68
751,988	11208,02
752,169	11476,3
752,349	11326,8
752,53	11568,46
752,71	11404,63
752,891	11455,83
753,071	11445,59
753,252	11625,81
753,432	11427,15
753,613	11593,04
753,793	11650,38
753,974	11652,43
754,154	11470,16
754,334	11439,44
754,515	11699,53
754,695	11416,91
754,876	11519,31
755,056	11644,24
755,236	11566,42
755,417	11812,17
755,597	11636,05
755,777	11564,37
755,957	11697,49
756,138	11619,66
756,318	11498,83
756,498	11580,75
756,678	11468,11
756,859	11642,19
757,039	11521,36
757,219	11552,08
757,399	11173,21
757,579	10413,41
757,759	9887,08
757,939	8994,17
758,119	7452,05
758,3	6340
758,48	5109,17
758,66	3945,92
758,84	2956,75
759,02	2274,78
759,2	1879,52
759,38	1547,75
759,56	1463,79
759,74	1607,14
759,919	1914,34
760,099	2387,42
760,279	3001,81
760,459	3276,24
760,639	3694,02
760,819	3771,85
760,999	3612,1
761,178	3536,33
761,358	3192,27
761,538	3081,68
761,718	2835,92
761,898	2872,79
762,077	2962,9
762,257	2911,7
762,437	2960,85
762,616	3102,16
762,796	3403,21
762,976	3493,32
763,155	3718,6
763,335	4222,4
763,515	4388,29
763,694	4513,21
763,874	4857,27
764,053	5186,99
764,233	5328,3
764,413	5600,68
764,592	6096,29
764,772	6522,27
764,951	6481,31
765,131	6786,46
765,31	7331,22
765,489	7507,34
765,669	7654,8
765,848	7982,47
766,028	8168,84
766,207	8289,67
766,386	8494,46
766,566	8799,61
766,745	8697,21
766,924	8750,46
767,104	8951,16
767,283	8844,67
767,462	9137,52
767,642	9024,89
767,821	9131,38
768	9270,64
768,179	9158
768,358	9125,24
768,538	9012,6
768,717	9170,29
768,896	9041,27
769,075	9239,92
769,254	9092,47
769,433	9166,2
769,612	9102,71
769,791	9059,7
769,97	9010,55
770,149	8975,74
770,328	8904,06
770,507	8949,11
770,686	8598,91
770,865	8994,17
771,044	8815,99
771,223	8811,9
771,402	8699,26
771,581	8787,32
771,76	8723,83
771,939	8633,72
772,118	8670,59
772,297	8607,1
772,475	8607,1
772,654	8650,11
772,833	8508,8
773,012	8390,02
773,191	8205,7
773,369	8383,87
773,548	8228,23
773,727	8336,77
773,906	8078,72
774,084	8250,75
774,263	8127,88
774,442	8009,09
774,62	8123,78
774,799	8023,43
774,977	7968,13
775,156	7812,49
775,335	7695,75
775,513	7859,59
775,692	7691,66
775,87	7845,26
776,049	7759,24
776,227	7654,8
776,406	7611,79
776,584	7736,71
776,763	7585,16
776,941	7533,97
777,119	7386,51
777,298	7667,08
777,476	7472,53
777,655	7570,83
777,833	7544,2
778,011	7230,87
778,19	7128,47
778,368	7349,65
778,546	7208,34
778,725	7433,61
778,903	7077,27
779,081	7103,89
779,259	6981,01
779,437	7044,5
779,616	7120,28
779,794	6847,9
779,972	6866,33
780,15	7138,71
780,328	6966,68
780,506	6903,19
780,685	6913,43
780,863	6870,42
781,041	7013,78
781,219	6837,66
781,397	6743,45
781,575	6710,68
781,753	6509,98
781,931	6598,04
782,109	6442,4
782,287	6280,61
782,465	6387,1
782,643	6528,41
782,82	6571,42
782,998	6499,74
783,176	6444,45
783,354	6290,85
783,532	6303,14
783,71	6321,57
783,888	6192,55
784,065	6137,25
784,243	6294,94
784,421	6094,24
784,599	6145,44
784,776	5991,84
784,954	5963,17
785,132	5934,5
785,31	5696,94
785,487	5682,6
785,665	5741,99
785,842	5727,66
786,02	5383,6
786,198	5723,56
786,375	5430,7
786,553	5377,45
786,73	5436,85
786,908	5348,78
787,085	5469,61
787,263	5313,97
787,44	5207,47
787,618	4976,05
787,795	4916,66
787,973	4824,5
788,15	4885,94
788,328	4810,17
788,505	4744,63
788,682	4869,56
788,86	4892,09
789,037	4914,61
789,215	4756,92
789,392	4752,82
789,569	4904,37
789,746	4779,45
789,924	4578,75
790,101	4797,88
790,278	4853,17
790,455	4683,19
790,633	4720,06
790,81	4650,43
790,987	4724,15
791,164	4685,24
791,341	4636,09
791,518	4621,75
791,695	4543,93
791,873	4769,21
792,05	4558,27
792,227	4828,6
792,404	4824,5
792,581	4621,75
792,758	4711,86
792,935	4699,58
793,112	4638,14
793,289	4697,53
793,466	4652,47
793,643	4535,74
793,82	4558,27
793,996	4474,3
794,173	4429,24
794,35	4507,07
794,527	4253,12
794,704	4158,91
794,881	4236,74
795,057	4056,51
795,234	4027,84
795,411	4046,27
795,588	4152,77
795,765	4103,62
795,941	4298,17
796,118	4113,86
796,295	4283,84
796,471	4203,97
796,648	4339,13
796,825	4232,64
797,001	4261,31
797,178	4230,59
797,354	4253,12
797,531	4134,34
797,708	4173,25
797,884	4126,15
798,061	4033,99
798,237	3909,06
798,414	3993,03
798,59	3913,16
798,767	3962,31
798,943	3904,96
799,119	3792,33
799,296	3857,86
799,472	3937,73
799,649	3741,13
799,825	3706,31
800,001	3595,72
800,178	3782,09
800,354	3747,27
800,53	3683,78
800,707	3673,54
800,883	3493,32
801,059	3511,75
801,235	3519,95
801,411	3610,06
801,588	3706,31
801,764	3499,47
801,94	3648,97
802,116	3509,71
802,292	3634,63
802,468	3722,7
802,645	3382,73
802,821	3720,65
802,997	3519,95
803,173	3577,29
803,349	3571,15
803,525	3583,43
803,701	3747,27
803,877	3704,26
804,053	3798,47
804,229	3784,13
804,405	3765,7
804,581	3775,94
804,756	3755,46
804,932	3847,62
805,108	3622,34
805,284	3651,02
805,46	3608,01
805,636	3464,65
805,812	3624,39
805,987	3515,85
806,163	3706,31
806,339	3741,13
806,515	3577,29
806,69	3448,27
806,866	3337,68
807,042	3427,79
807,217	3349,96
807,393	3476,94
807,569	3171,79
807,744	3345,87
807,92	3257,81
808,096	3136,98
808,271	3231,18
808,447	2993,62
808,622	3155,41
808,798	2897,36
808,973	3175,89
809,149	3018,19
809,324	2854,36
809,5	2895,32
809,675	2870,74
809,851	2815,45
810,026	2713,05
810,201	2782,68
810,377	2602,46
810,552	2749,91
810,728	2799,06
810,903	2616,79
811,078	2641,37
811,253	2381,28
811,429	2524,63
811,604	2481,63
811,779	2260,45
811,955	2135,52
812,13	2123,23
812,305	2096,61
812,48	2018,79
812,655	2031,07
812,83	1926,63
813,006	1791,46
813,181	1840,61
813,356	1822,18
813,531	1836,52
813,706	1684,97
813,881	1695,21
814,056	1826,28
814,231	1721,83
814,406	1605,1
814,581	1588,71
814,756	1557,99
814,931	1465,83
815,106	1525,22
815,281	1451,5
815,456	1535,46
815,631	1531,37
815,805	1439,21
815,98	1582,57
816,155	1617,38
816,33	1471,98
816,505	1547,75
816,68	1576,42
816,854	1502,7
817,029	1576,42
817,204	1578,47
817,379	1662,44
817,553	1555,94
817,728	1494,51
817,903	1539,56
818,077	1484,27
818,252	1478,12
818,427	1539,56
818,601	1609,19
818,776	1867,24
818,95	1930,72
819,125	1961,44
819,299	1981,92
819,474	1973,73
819,648	2039,26
819,823	2063,84
819,997	1869,28
820,172	1996,26
820,346	1889,76
820,521	1799,65
820,695	1865,19
820,87	1660,39
821,044	1480,17
821,218	1402,35
821,393	1312,24
821,567	1207,79
821,741	1271,28
821,916	1242,61
822,09	1334,76
822,264	1383,91
822,438	1338,86
822,613	1486,31
822,787	1605,1
822,961	1680,87
823,135	1752,55
823,309	1758,69
823,483	1863,14
823,658	1971,68
823,832	1803,75
824,006	1992,16
824,18	1795,56
824,354	1730,02
824,528	1813,99
824,702	1934,82
824,876	1963,49
825,05	1897,96
825,224	1813,99
825,398	1732,07
825,572	1840,61
825,746	1650,15
825,92	1736,17
826,093	1662,44
826,267	1615,34
826,441	1574,38
826,615	1480,17
826,789	1601
826,963	1557,99
827,136	1566,18
827,31	1605,1
827,484	1504,75
827,658	1594,86
827,831	1596,9
828,005	1607,14
828,179	1517,03
828,353	1517,03
828,526	1629,67
828,7	1582,57
828,873	1674,73
829,047	1607,14
829,221	1580,52
829,394	1562,09
829,568	1568,23
829,741	1549,8
829,915	1637,86
830,088	1639,91
830,262	1553,9
830,435	1615,34
830,609	1648,1
830,782	1689,06
830,956	1607,14
831,129	1601
831,302	1574,38
831,476	1433,07
831,649	1549,8
831,822	1545,7
831,996	1519,08
832,169	1551,85
832,342	1598,95
832,516	1605,1
832,689	1689,06
832,862	1617,38
833,035	1635,82
833,209	1676,77
833,382	1801,7
833,555	1803,75
833,728	1723,88
833,901	1758,69
834,074	1644,01
834,247	1670,63
834,42	1740,26
834,594	1818,08
834,767	1885,67
834,94	1641,96
835,113	1840,61
835,286	1824,23
835,459	1760,74
835,632	1742,31
835,805	1789,41
835,977	1787,36
836,15	1654,25
836,323	1668,58
836,496	1656,29
836,669	1596,9
836,842	1717,73
837,015	1787,36
837,188	1713,64
837,36	1752,55
837,533	1746,41
837,706	1744,36
837,879	1768,93
838,051	1912,29
838,224	1705,45
838,397	1838,56
838,569	1693,16
838,742	1795,56
838,915	1797,6
839,087	1658,34
839,26	1723,88
839,433	1736,17
839,605	1691,11
839,778	1719,78
839,95	1705,45
840,123	1715,69
840,295	1711,59
840,468	1727,97
840,64	1678,82
840,813	1742,31
840,985	1742,31
841,158	1795,56
841,33	1891,81
841,502	1711,59
841,675	1754,6
841,847	1566,18
842,019	1672,68
842,192	1740,26
842,364	1693,16
842,536	1459,69
842,709	1613,29
842,881	1689,06
843,053	1697,25
843,225	1707,49
843,398	1717,73
843,57	1687,01
843,742	1689,06
843,914	1627,62
844,086	1648,1
844,258	1693,16
844,43	1709,54
844,602	1650,15
844,775	1623,53
844,947	1580,52
845,119	1525,22
845,291	1625,58
845,463	1601
845,635	1621,48
845,807	1613,29
845,979	1631,72
846,15	1613,29
846,322	1639,91
846,494	1531,37
846,666	1545,7
846,838	1582,57
847,01	1732,07
847,182	1553,9
847,354	1553,9
847,525	1574,38
847,697	1580,52
847,869	1435,11
848,041	1490,41
848,212	1476,07
848,384	1416,68
848,556	1390,06
848,727	1426,92
848,899	1359,34
849,071	1514,98
849,242	1334,76
849,414	1285,61
849,585	1340,91
849,757	1416,68
849,929	1400,3
850,1	1449,45
850,272	1463,79
850,443	1267,18
850,615	1439,21
850,786	1349,1
850,958	1455,59
851,129	1404,39
851,3	1263,08
851,472	1428,97
851,643	1514,98
851,815	1428,97
851,986	1412,59
852,157	1304,04
852,329	1334,76
852,5	1236,46
852,671	1129,97
852,842	1119,73
853,014	1076,72
853,185	1111,54
853,356	1220,08
853,527	1129,97
853,698	1177,07
853,87	1218,03
854,041	1140,21
854,212	1228,27
854,383	1175,02
854,554	1115,63
854,725	1203,69
854,896	1175,02
855,067	1195,5
855,238	1158,64
855,409	1195,5
855,58	1222,13
855,751	1172,97
855,922	1201,65
856,093	1238,51
856,264	1228,27
856,435	1111,54
856,606	1160,69
856,777	1150,45
856,948	1168,88
857,118	1203,69
857,289	1187,31
857,46	1318,38
857,631	1089,01
857,802	1140,21
857,972	1134,06
858,143	1125,87
858,314	1148,4
858,484	1193,45
858,655	1197,55
858,826	1164,78
858,996	1195,5
859,167	1084,91
859,338	1035,76
859,508	1089,01
859,679	1123,82
859,849	1285,61
860,02	1070,58
860,19	1111,54
860,361	1136,11
860,531	1048,05
860,702	1097,2
860,872	1127,92
861,043	1158,64
861,213	1052,14
861,384	1058,29
861,554	1138,16
861,724	1080,82
861,895	931,31
862,065	1031,66
862,235	966,13
862,406	1095,15
862,576	968,18
862,746	984,56
862,916	1007,09
863,087	1037,81
863,257	1136,11
863,427	1076,72
863,597	1054,19
863,767	914,93
863,937	898,55
864,108	1041,9
864,278	1017,33
864,448	921,07
864,618	878,07
864,788	978,42
864,958	806,39
865,128	802,29
865,298	798,2
865,468	802,29
865,638	855,54
865,808	857,59
865,978	818,68
866,148	1025,52
866,318	849,4
866,487	876,02
866,657	882,16
866,827	873,97
866,997	884,21
867,167	876,02
867,337	818,68
867,506	841,2
867,676	882,16
867,846	886,26
868,016	759,28
868,185	984,56
868,355	781,81
868,525	970,23
868,694	837,11
868,864	978,42
869,034	779,76
869,203	800,24
869,373	699,89
869,542	841,2
869,712	841,2
869,881	896,5
870,051	892,4
870,22	769,52
870,39	808,44
870,559	757,24
870,729	701,94
870,898	751,09
871,068	734,71
871,237	802,29
871,406	736,76
871,576	783,86
871,745	794,1
871,914	777,72
872,084	732,66
872,253	720,37
872,422	699,89
872,591	765,43
872,761	744,95
872,93	810,48
873,099	679,41
873,268	714,23
873,437	736,76
873,607	722,42
873,776	734,71
873,945	726,52
874,114	652,79
874,283	695,8
874,452	626,17
874,621	755,19
874,79	712,18
874,959	648,69
875,128	626,17
875,297	652,79
875,466	654,84
875,635	615,93
875,804	568,82
875,973	679,41
876,142	636,41
876,31	671,22
876,479	636,41
876,648	597,49
876,817	624,12
876,986	722,42
877,155	550,39
877,323	513,53
877,492	564,73
877,661	562,68
877,829	634,36
877,998	507,38
878,167	493,05
878,335	497,14
878,504	558,58
878,673	591,35
878,841	579,06
879,01	632,31
879,178	650,74
879,347	505,34
879,515	540,15
879,684	554,49
879,852	468,47
880,021	564,73
880,189	538,1
880,358	456,19
880,526	566,78
880,695	398,84
880,863	421,37
881,031	482,81
881,2	431,61
881,368	552,44
881,536	513,53
881,705	507,38
881,873	564,73
882,041	425,47
882,21	488,95
882,378	413,18
882,546	472,57
882,714	529,91
882,882	439,8
883,05	450,04
883,219	417,27
883,387	513,53
883,555	380,41
883,723	427,51
883,891	546,3
884,059	513,53
884,227	517,62
884,395	394,75
884,563	427,51
884,731	505,34
884,899	499,19
885,067	466,42
885,235	392,7
885,403	542,2
885,571	386,55
885,739	378,36
