Data from Subt6__0__15-54-01-263.txt Node

Date: Wed Oct 20 15:54:01 CEST 2021
User: Praktikum
Spectrometer: USB4F03543
Trigger mode: 4
Integration Time (sec): 1,000000E-2
Scans to average: 40
Electric dark correction enabled: true
Nonlinearity correction enabled: false
Boxcar width: 0
XAxis mode: Wavelengths
Number of Pixels in Spectrum: 3648
>>>>>Begin Spectral Data<<<<<
179,969	14,36
180,181	14,36
180,394	14,36
180,606	11,3
180,819	3,3
181,031	14,88
181,243	-4,33
181,456	-6,89
181,668	-1,64
181,88	4,05
182,093	4,4
182,305	2,97
182,518	-5,04
182,73	-6,43
182,942	8,9
183,155	-4,07
183,367	-6,8
183,579	-2,7
183,791	3,15
184,004	-6,33
184,216	14,3
184,428	4,77
184,641	6,36
184,853	13,93
185,065	9,55
185,277	3,61
185,49	1,05
185,702	8,56
185,914	4,49
186,126	11,02
186,338	-2,01
186,551	7,87
186,763	19,28
186,975	26,7
187,187	18,42
187,399	6,97
187,612	3,03
187,824	25,34
188,036	-12,48
188,248	13,82
188,46	16,58
188,672	17,8
188,885	-3,79
189,097	9,68
189,309	14,22
189,521	11,06
189,733	9,2
189,945	13,01
190,157	10,45
190,369	20,79
190,581	3,05
190,794	-11,35
191,006	12,54
191,218	10,42
191,43	-19,64
191,642	9,09
191,854	4,45
192,066	19,15
192,278	-0,96
192,49	8,79
192,702	8,23
192,914	7,7
193,126	3,38
193,338	-6,83
193,55	10,31
193,762	13,28
193,974	-0,14
194,186	21,95
194,398	2,67
194,61	9,11
194,822	9,73
195,034	10,34
195,246	13,89
195,457	15,58
195,669	11,05
195,881	11,5
196,093	15,82
196,305	10,01
196,517	17,74
196,729	18,56
196,941	7,67
197,153	19,1
197,365	5,4
197,576	5,88
197,788	-2,62
198	15,85
198,212	-6,57
198,424	4,36
198,636	4,55
198,847	4,33
199,059	1,25
199,271	3,46
199,483	13,77
199,695	7,28
199,906	0,89
200,118	24,66
200,33	9,36
200,542	16,15
200,753	5,66
200,965	1,38
201,177	-1,88
201,389	4,33
201,6	14,22
201,812	4,41
202,024	10,11
202,235	13,69
202,447	29,92
202,659	0,32
202,871	13,38
203,082	9,85
203,294	5,31
203,506	-6,92
203,717	-1,03
203,929	1,44
204,141	3,65
204,352	12,75
204,564	13,64
204,775	0,54
204,987	17,7
205,199	19,23
205,41	2,55
205,622	-4,13
205,833	9,4
206,045	2,62
206,257	-15,49
206,468	10,51
206,68	-0,65
206,891	12,75
207,103	0,41
207,314	10,98
207,526	14,05
207,737	-9,95
207,949	8,56
208,16	20,57
208,372	22,3
208,583	0,24
208,795	7,84
209,006	11,86
209,218	-8,92
209,429	2,28
209,641	13,91
209,852	21,71
210,064	-2,36
210,275	-1,29
210,487	9,89
210,698	8,33
210,909	-1,79
211,121	12,73
211,332	-0,23
211,544	0,57
211,755	24,49
211,966	2,55
212,178	2,4
212,389	-2,9
212,6	8,65
212,812	12,47
213,023	15,94
213,234	-3,78
213,446	-9
213,657	5,87
213,868	12,79
214,08	-5,16
214,291	10,51
214,502	16,66
214,714	11,1
214,925	25,31
215,136	8,55
215,347	14,77
215,559	22,5
215,77	-0,69
215,981	18,78
216,192	19,14
216,404	7,97
216,615	5,27
216,826	6,01
217,037	20,02
217,249	-1,72
217,46	5,14
217,671	7,84
217,882	-0,6
218,093	2,34
218,304	-1,99
218,516	2,4
218,727	-10,53
218,938	3,42
219,149	17,59
219,36	15,31
219,571	5,77
219,782	25,93
219,993	3,09
220,205	6,21
220,416	4,85
220,627	3,77
220,838	13,31
221,049	-7,53
221,26	9,45
221,471	12,55
221,682	3,94
221,893	9,31
222,104	22,91
222,315	24,33
222,526	7,61
222,737	-3,22
222,948	8,42
223,159	7,82
223,37	15,69
223,581	7,16
223,792	7,21
224,003	2,72
224,214	1,83
224,425	2,37
224,636	3,61
224,847	15,49
225,058	-0,82
225,269	14,99
225,48	4,03
225,691	10,12
225,902	-2,9
226,112	-2,2
226,323	8,87
226,534	13,03
226,745	9,87
226,956	29,39
227,167	16,62
227,378	13,07
227,589	11,28
227,799	2,27
228,01	-1,79
228,221	22,31
228,432	5,91
228,643	1,87
228,853	6,63
229,064	28,1
229,275	8,07
229,486	3,49
229,697	10,63
229,907	-7,38
230,118	3,93
230,329	-6,24
230,54	10,84
230,75	26,09
230,961	3,76
231,172	5,67
231,383	19,97
231,593	11,59
231,804	-1,62
232,015	15,51
232,225	-11,28
232,436	13,06
232,647	17,11
232,857	24,3
233,068	9,04
233,279	0,6
233,489	22,45
233,7	29,57
233,91	7,96
234,121	-5,58
234,332	1,44
234,542	4,34
234,753	22,62
234,964	17,01
235,174	13,28
235,385	7,39
235,595	3,06
235,806	28,17
236,016	26,8
236,227	14,04
236,437	7,77
236,648	6,66
236,858	19,47
237,069	15,06
237,279	19,91
237,49	13,47
237,7	23,94
237,911	23,7
238,121	23,07
238,332	6,53
238,542	4,2
238,753	15,37
238,963	11,11
239,174	10,3
239,384	16,86
239,595	23,36
239,805	4,42
240,015	7,92
240,226	4,68
240,436	21,81
240,647	30,75
240,857	21,62
241,067	26,31
241,278	-1,73
241,488	-5
241,698	19,92
241,909	18,98
242,119	9,59
242,329	11,92
242,54	23,65
242,75	-4,39
242,96	4,31
243,171	14,5
243,381	20,18
243,591	5,85
243,801	4,91
244,012	17,06
244,222	12,36
244,432	10,31
244,642	15,68
244,853	32,65
245,063	27,85
245,273	20,69
245,483	12,77
245,694	14,79
245,904	15,84
246,114	3,99
246,324	14,07
246,534	19,99
246,744	10,81
246,955	0,53
247,165	11,43
247,375	12,02
247,585	21,07
247,795	7,21
248,005	-5,52
248,215	-1,23
248,425	24,76
248,636	25,2
248,846	13,3
249,056	0,55
249,266	1,04
249,476	15,4
249,686	27,42
249,896	42,5
250,106	24,06
250,316	9,16
250,526	20,37
250,736	14,22
250,946	11,94
251,156	10,17
251,366	5,78
251,576	19,04
251,786	8,35
251,996	12,63
252,206	3,27
252,416	27,48
252,626	15,07
252,836	3,8
253,046	14,95
253,256	16,26
253,466	17,22
253,676	17,63
253,885	10,08
254,095	22,44
254,305	6,3
254,515	14,75
254,725	21,83
254,935	8,76
255,145	23,15
255,355	12,33
255,564	32,61
255,774	2,83
255,984	19,76
256,194	10,81
256,404	14,3
256,614	18,59
256,823	18,34
257,033	17,77
257,243	18,2
257,453	7,9
257,662	2,86
257,872	22,28
258,082	24,36
258,292	12,21
258,501	7,98
258,711	30,13
258,921	12,51
259,131	22,7
259,34	14,55
259,55	10,6
259,76	20,3
259,969	7,05
260,179	21,66
260,389	17,42
260,598	8,42
260,808	10,73
261,018	30,87
261,227	11,8
261,437	8,74
261,647	9,3
261,856	16,32
262,066	21,83
262,275	13,93
262,485	23,39
262,694	5,92
262,904	9,41
263,114	12,03
263,323	10,56
263,533	10,61
263,742	8,02
263,952	21,21
264,161	23,67
264,371	10,06
264,58	10,47
264,79	3,63
264,999	12,22
265,209	12,13
265,418	3,47
265,628	32,94
265,837	11,73
266,047	25,61
266,256	20,64
266,466	14,56
266,675	18,98
266,884	9,82
267,094	23,98
267,303	27,89
267,513	8,38
267,722	15,25
267,931	14,19
268,141	4,34
268,35	20,67
268,559	10,55
268,769	16,78
268,978	15,14
269,187	27,52
269,397	11,23
269,606	22,2
269,815	21,94
270,025	17,84
270,234	12,96
270,443	21,65
270,653	15,08
270,862	19,01
271,071	5,09
271,28	9,51
271,49	14,66
271,699	20,49
271,908	16,06
272,117	17,68
272,327	18,83
272,536	-5,18
272,745	32,3
272,954	-1,89
273,163	20,4
273,372	15,77
273,582	-1,63
273,791	21,06
274	5,32
274,209	10,47
274,418	19,05
274,627	14,24
274,836	11,96
275,046	12,57
275,255	12,79
275,464	15,67
275,673	19,98
275,882	3,97
276,091	1,64
276,3	16,95
276,509	7,28
276,718	8,73
276,927	3,95
277,136	2,63
277,345	13,21
277,554	3,76
277,763	14,39
277,972	21,62
278,181	5,05
278,39	-0,07
278,599	11,42
278,808	8,6
279,017	15,21
279,226	22,88
279,435	2,65
279,644	19,17
279,853	20,26
280,062	-1,77
280,271	8,06
280,48	0,91
280,688	22,15
280,897	15,78
281,106	-6,96
281,315	-0,1
281,524	13,45
281,733	9,05
281,942	7,18
282,151	7,94
282,359	26,06
282,568	6,75
282,777	4
282,986	4,29
283,195	10,22
283,403	7,39
283,612	21,56
283,821	3,04
284,03	18,19
284,238	6,4
284,447	20,28
284,656	19,94
284,865	12,04
285,073	9,38
285,282	4,06
285,491	-4,32
285,699	16,84
285,908	28,45
286,117	2,19
286,325	2,14
286,534	19,68
286,743	2,39
286,951	11,97
287,16	5,91
287,369	8,18
287,577	-10,39
287,786	5,06
287,995	14,06
288,203	2,61
288,412	1,91
288,62	12,2
288,829	16,4
289,037	2,17
289,246	4,06
289,455	28,57
289,663	0,25
289,872	8,25
290,08	12,54
290,289	18,69
290,497	29,95
290,706	3,12
290,914	4,71
291,123	14,08
291,331	27,4
291,54	16,17
291,748	15,03
291,957	25,5
292,165	3,42
292,373	11,26
292,582	-0,85
292,79	16,72
292,999	19,47
293,207	6,23
293,415	3,52
293,624	8,83
293,832	16,21
294,041	12,79
294,249	8,14
294,457	7,53
294,666	18,6
294,874	0,88
295,082	6,66
295,291	7,43
295,499	20,99
295,707	18,35
295,915	5,8
296,124	17,31
296,332	12,39
296,54	10,07
296,749	6,99
296,957	8,57
297,165	11,03
297,373	16,49
297,581	-0,87
297,79	29,16
297,998	12,98
298,206	9,53
298,414	19,51
298,622	-4,01
298,831	0,49
299,039	18,73
299,247	13,09
299,455	10,7
299,663	19,67
299,871	12,74
300,08	22,57
300,288	0,59
300,496	18,48
300,704	-15,39
300,912	-12,73
301,12	8,41
301,328	5,13
301,536	12,17
301,744	23,3
301,952	4,37
302,16	20,96
302,368	-6,23
302,576	-12,53
302,784	10,5
302,992	8,15
303,2	7,05
303,408	20,15
303,616	10
303,824	15,64
304,032	17,51
304,24	11,67
304,448	11,47
304,656	16,22
304,864	30,76
305,072	2,88
305,28	15,99
305,488	9,52
305,696	4,49
305,904	15,43
306,111	18,17
306,319	10,88
306,527	-2,69
306,735	9,13
306,943	-3,25
307,151	11,08
307,359	6,86
307,566	19,14
307,774	10,51
307,982	1,1
308,19	8,65
308,398	14,89
308,605	24,28
308,813	19,92
309,021	10,51
309,229	4,81
309,436	21,1
309,644	17,58
309,852	2,76
310,06	13,93
310,267	1,64
310,475	14,95
310,683	3,94
310,89	-2,03
311,098	19,08
311,306	0,26
311,513	13,3
311,721	1,18
311,929	11,94
312,136	5,93
312,344	19,95
312,552	10,92
312,759	6,26
312,967	19,73
313,174	9,27
313,382	19,84
313,589	21,42
313,797	20,31
314,005	-3,16
314,212	6,2
314,42	18,84
314,627	17,62
314,835	13,94
315,042	5,29
315,25	17,25
315,457	4,69
315,665	3,73
315,872	13,29
316,08	23,08
316,287	7,59
316,495	2,89
316,702	13,27
316,909	7,94
317,117	11,88
317,324	7,04
317,532	19,21
317,739	7,92
317,946	22,75
318,154	6,49
318,361	26,25
318,569	14,92
318,776	11,44
318,983	11,06
319,191	19,33
319,398	20,31
319,605	15,32
319,813	7,47
320,02	24,82
320,227	5,9
320,434	10,64
320,642	7,3
320,849	9,12
321,056	11,38
321,264	8,34
321,471	10,15
321,678	14,67
321,885	20,12
322,092	21,26
322,3	1,06
322,507	23,34
322,714	26,55
322,921	11,69
323,128	5,42
323,336	18,44
323,543	13,77
323,75	18,39
323,957	24,69
324,164	8,53
324,371	13,06
324,578	6,63
324,786	13,04
324,993	23,5
325,2	-3,29
325,407	9,39
325,614	1,23
325,821	17,46
326,028	17,65
326,235	24,31
326,442	18,48
326,649	12,87
326,856	5,6
327,063	-3,15
327,27	9,78
327,477	15,35
327,684	19,63
327,891	29,16
328,098	25,59
328,305	49,17
328,512	53,61
328,719	97,57
328,926	114,4
329,133	153,55
329,34	208,98
329,546	252,46
329,753	333,96
329,96	380,92
330,167	387,53
330,374	384,03
330,581	393,74
330,788	385,24
330,995	351,59
331,201	312,93
331,408	276,03
331,615	242,49
331,822	171,08
332,029	104,42
332,235	55,43
332,442	42,38
332,649	22,32
332,856	24,99
333,062	36,1
333,269	17,37
333,476	12,24
333,683	27,19
333,889	20,42
334,096	22,23
334,303	12,6
334,509	31,97
334,716	8,08
334,923	13,45
335,129	8,67
335,336	15,91
335,543	22,89
335,749	16,23
335,956	22,39
336,163	0,07
336,369	7,79
336,576	16,5
336,782	10,24
336,989	10,85
337,196	18,54
337,402	5,67
337,609	24,74
337,815	18,87
338,022	15,29
338,228	21,24
338,435	15,42
338,641	2,11
338,848	19,62
339,054	22,01
339,261	15,14
339,467	1,76
339,674	11,71
339,88	19,51
340,087	15,38
340,293	13,6
340,5	16,49
340,706	5,53
340,912	23,56
341,119	4,81
341,325	8,52
341,532	15,39
341,738	14,11
341,944	9,68
342,151	19,03
342,357	18,57
342,563	10,22
342,77	10,64
342,976	7,68
343,182	22,84
343,389	9,97
343,595	11,89
343,801	-0,36
344,007	18,49
344,214	22,09
344,42	7,11
344,626	19,54
344,832	8,09
345,039	31,73
345,245	4,65
345,451	14,64
345,657	25,15
345,864	10,78
346,07	9,47
346,276	16,79
346,482	15,89
346,688	9,71
346,894	12,6
347,1	13,38
347,307	4,09
347,513	16,11
347,719	7,31
347,925	6,6
348,131	7,18
348,337	22,07
348,543	9,98
348,749	19,44
348,955	-1,25
349,161	22,2
349,367	14,61
349,573	2,7
349,779	10,7
349,985	10,78
350,191	30,18
350,397	9,05
350,603	9,15
350,809	6,96
351,015	23,46
351,221	12,52
351,427	-0,58
351,633	14,45
351,839	17,67
352,045	28,69
352,251	29,61
352,457	5,64
352,663	13,72
352,869	26,08
353,075	4,66
353,28	19,72
353,486	22,15
353,692	24,39
353,898	14,67
354,104	8,64
354,31	7,03
354,515	14,58
354,721	37,53
354,927	9,92
355,133	18,66
355,339	17,68
355,544	5,8
355,75	12,67
355,956	16,55
356,162	25,69
356,367	26,43
356,573	10,17
356,779	21,89
356,984	1,6
357,19	27,96
357,396	16,19
357,602	6,37
357,807	22,78
358,013	29,3
358,218	25,75
358,424	3,92
358,63	14,67
358,835	12,31
359,041	16,25
359,247	13,88
359,452	23,91
359,658	34,3
359,863	11,58
360,069	19,9
360,274	8,28
360,48	24,22
360,685	11,45
360,891	23,49
361,097	27,06
361,302	17,56
361,508	20,58
361,713	7,33
361,918	6,25
362,124	20,01
362,329	17,34
362,535	11,55
362,74	7,65
362,946	13,92
363,151	17,16
363,357	37,71
363,562	14,2
363,767	21,88
363,973	24,9
364,178	20,27
364,383	22,04
364,589	22,98
364,794	17,53
365	6,49
365,205	19,93
365,41	24,15
365,615	23,29
365,821	23,25
366,026	15,49
366,231	6,21
366,437	13,75
366,642	-1,77
366,847	31
367,052	16,71
367,258	12,04
367,463	20,83
367,668	31,23
367,873	19,99
368,078	2,23
368,284	17,23
368,489	11,25
368,694	26,4
368,899	16,46
369,104	41,75
369,309	32,65
369,515	22,94
369,72	12,91
369,925	15,33
370,13	15,14
370,335	32,6
370,54	11,85
370,745	25,29
370,95	3,94
371,155	27,6
371,36	24,14
371,565	4,47
371,77	6,93
371,975	14,28
372,18	11,86
372,385	23,09
372,59	8,68
372,795	10,92
373	20,47
373,205	3,24
373,41	26,12
373,615	9,69
373,82	10,58
374,025	13,33
374,23	2,65
374,435	27,26
374,64	11,23
374,845	20,38
375,05	20,47
375,254	12,68
375,459	27,99
375,664	25,41
375,869	20,85
376,074	16,65
376,279	14,45
376,483	17,5
376,688	19,8
376,893	11,22
377,098	36,15
377,303	23,51
377,507	15,86
377,712	22,21
377,917	26,4
378,122	26,83
378,326	17,28
378,531	30,93
378,736	31
378,94	20,4
379,145	21,33
379,35	21,15
379,554	22
379,759	24,9
379,964	12,97
380,168	30,07
380,373	18,69
380,578	39,14
380,782	17,07
380,987	12,31
381,191	17,2
381,396	4,25
381,601	21,58
381,805	7,95
382,01	23,12
382,214	25,27
382,419	7,74
382,623	14
382,828	24,7
383,032	18,4
383,237	13,08
383,441	16,39
383,646	19,83
383,85	15,24
384,055	16,67
384,259	20,71
384,464	14,15
384,668	27,47
384,872	19,77
385,077	15,82
385,281	19,01
385,486	22,22
385,69	23,77
385,894	24,98
386,099	11,55
386,303	31,09
386,507	23,54
386,712	30,42
386,916	5,74
387,12	17,85
387,325	11,7
387,529	18,62
387,733	9,21
387,937	24,34
388,142	23,28
388,346	30,53
388,55	20,6
388,754	22,97
388,959	30,19
389,163	18,89
389,367	12,04
389,571	12,36
389,775	17,89
389,98	12,84
390,184	6,8
390,388	1,19
390,592	7,32
390,796	23,15
391	11,39
391,204	4,69
391,409	27,97
391,613	24,52
391,817	15,74
392,021	16,3
392,225	26,69
392,429	26,24
392,633	35,86
392,837	13,25
393,041	7,03
393,245	29,89
393,449	18,25
393,653	21,56
393,857	27,66
394,061	20,12
394,265	32,76
394,469	29,42
394,673	33,15
394,877	22,77
395,081	20,54
395,285	18,34
395,489	8,01
395,693	11,19
395,896	26,68
396,1	10,22
396,304	19,94
396,508	17,39
396,712	6,78
396,916	27,7
397,12	17,21
397,323	9,97
397,527	3,98
397,731	23,32
397,935	19,32
398,139	16,97
398,342	7,96
398,546	20,5
398,75	18,78
398,954	23,12
399,157	14,06
399,361	21,6
399,565	15,72
399,769	12,7
399,972	15,01
400,176	10,94
400,38	15,85
400,583	13,37
400,787	23,61
400,991	18,58
401,194	24,87
401,398	34,15
401,601	14,12
401,805	7,47
402,009	20,05
402,212	18,5
402,416	21,15
402,619	10,42
402,823	21,71
403,026	13,16
403,23	17,76
403,433	21,25
403,637	19,89
403,841	22,36
404,044	23,83
404,247	24,02
404,451	32,78
404,654	32,96
404,858	21,2
405,061	28,05
405,265	13,41
405,468	19,46
405,672	14,65
405,875	22,26
406,078	19,47
406,282	39,12
406,485	17,45
406,689	30,18
406,892	21,15
407,095	8,77
407,299	35,48
407,502	4,82
407,705	22,76
407,909	18,15
408,112	26,15
408,315	21,37
408,518	20,13
408,722	18,78
408,925	16,9
409,128	15,89
409,331	20,71
409,535	20,8
409,738	30,6
409,941	26,24
410,144	23,21
410,347	23,71
410,551	21,34
410,754	12,34
410,957	29,35
411,16	30,22
411,363	20,52
411,566	19,12
411,769	16,26
411,973	26,35
412,176	-8,21
412,379	14,26
412,582	24,89
412,785	24,47
412,988	16,55
413,191	19,16
413,394	18,74
413,597	27,1
413,8	24,45
414,003	12,84
414,206	27,21
414,409	32,63
414,612	33,72
414,815	28,48
415,018	32,43
415,221	41,64
415,424	56,43
415,627	51,28
415,83	55,42
416,033	38,44
416,235	53,67
416,438	54,41
416,641	44,05
416,844	41,95
417,047	45,54
417,25	30,8
417,453	36,14
417,655	37,14
417,858	32,43
418,061	38,85
418,264	37,2
418,467	39,73
418,669	42,46
418,872	47,46
419,075	48,37
419,278	53,93
419,48	68,24
419,683	72,51
419,886	52,73
420,089	47,58
420,291	63,86
420,494	49,24
420,697	37,7
420,899	44,11
421,102	36,5
421,305	16,53
421,507	28,04
421,71	33,57
421,912	24,28
422,115	33,99
422,318	33,05
422,52	28,75
422,723	9,98
422,925	7,79
423,128	23,73
423,33	6,42
423,533	18,52
423,735	23,13
423,938	33,89
424,14	22,3
424,343	40,27
424,545	37,98
424,748	33,19
424,95	22,64
425,153	21,84
425,355	26,69
425,558	25,7
425,76	37,23
425,962	42,69
426,165	34,64
426,367	46,72
426,57	40,64
426,772	52,26
426,974	33,96
427,177	40,15
427,379	33,82
427,581	35,26
427,784	38,97
427,986	31,12
428,188	16,44
428,39	18,16
428,593	25
428,795	25,29
428,997	15,31
429,2	31,54
429,402	33,74
429,604	30,97
429,806	21,04
430,008	39,37
430,211	28,06
430,413	37,65
430,615	28,49
430,817	26,86
431,019	24,14
431,221	28,76
431,423	47,51
431,626	21,41
431,828	28,25
432,03	18,73
432,232	15,82
432,434	26,76
432,636	33,37
432,838	26,08
433,04	31,56
433,242	30,7
433,444	43,66
433,646	29,33
433,848	36,03
434,05	38,15
434,252	15,82
434,454	33,02
434,656	24,76
434,858	23,9
435,06	27,35
435,262	21,56
435,464	21,29
435,666	24,67
435,868	14,1
436,07	28,57
436,271	29,89
436,473	19,89
436,675	33,38
436,877	24,81
437,079	12,53
437,281	17,41
437,482	19,26
437,684	24,99
437,886	35,07
438,088	20,3
438,29	22,14
438,491	26,32
438,693	23,96
438,895	22,6
439,097	34,58
439,298	22,98
439,5	34,24
439,702	26,95
439,903	12,87
440,105	13,86
440,307	24,56
440,508	20,55
440,71	24,02
440,912	22,92
441,113	17,41
441,315	30,65
441,517	15,95
441,718	21,46
441,92	33,45
442,121	20,08
442,323	22,99
442,524	28,08
442,726	22,14
442,928	30,33
443,129	12,55
443,331	21,21
443,532	8,77
443,734	6,55
443,935	17,07
444,136	4,41
444,338	36,95
444,539	12,31
444,741	25,34
444,942	26,15
445,144	22,61
445,345	24,5
445,546	19,59
445,748	20,58
445,949	25,98
446,151	27,81
446,352	28,61
446,553	28,6
446,755	9,73
446,956	22,11
447,157	14,44
447,359	5,23
447,56	30,22
447,761	34,71
447,962	26,15
448,164	17,77
448,365	35,71
448,566	13,77
448,767	24,44
448,969	43,04
449,17	32,79
449,371	34,19
449,572	39,26
449,773	22,6
449,974	35,99
450,176	37,86
450,377	40,7
450,578	26,68
450,779	28,83
450,98	26,67
451,181	23
451,382	29,44
451,583	15,15
451,784	36,25
451,986	38,87
452,187	43,63
452,388	26,78
452,589	22,81
452,79	25,94
452,991	16,8
453,192	48,84
453,393	36
453,594	24,86
453,795	24,82
453,995	20,22
454,196	37,66
454,397	41,23
454,598	44,83
454,799	33,29
455	60,52
455,201	46,25
455,402	44,8
455,603	38,26
455,804	43,08
456,004	46,96
456,205	34,21
456,406	41,69
456,607	38,58
456,808	20,04
457,008	22,84
457,209	29,08
457,41	30,62
457,611	23,56
457,811	39,5
458,012	21,15
458,213	23,04
458,414	33,07
458,614	41,75
458,815	33,69
459,016	30,66
459,216	19,33
459,417	44,82
459,618	29
459,818	29,63
460,019	30,28
460,22	30,7
460,42	41,29
460,621	29,08
460,821	33,74
461,022	19,83
461,223	27,19
461,423	25,88
461,624	41,13
461,824	29,17
462,025	36,41
462,225	30,48
462,426	34,59
462,626	18,53
462,827	28,6
463,027	25,64
463,228	31,82
463,428	29,01
463,628	31,65
463,829	24,99
464,029	24,62
464,23	19,7
464,43	19,89
464,63	41,59
464,831	35,99
465,031	32,81
465,231	31,43
465,432	49,94
465,632	49,39
465,832	59,86
466,033	52,57
466,233	63,06
466,433	63,1
466,634	72,31
466,834	66,5
467,034	38,19
467,234	56,73
467,435	44,23
467,635	41,88
467,835	25,12
468,035	40,99
468,235	42,82
468,436	37,6
468,636	14,4
468,836	38,75
469,036	46,6
469,236	35,34
469,436	39
469,636	41,65
469,836	42,25
470,037	26,68
470,237	20,25
470,437	25,53
470,637	27,06
470,837	33,68
471,037	38,61
471,237	34,96
471,437	26,45
471,637	20,38
471,837	29,69
472,037	44,25
472,237	34,6
472,437	19,87
472,637	16,61
472,837	25,71
473,036	46,32
473,236	34,75
473,436	27,29
473,636	24,11
473,836	30,11
474,036	43,3
474,236	45,73
474,436	30,55
474,635	43,34
474,835	31,33
475,035	55,41
475,235	50,59
475,435	53,93
475,634	34,23
475,834	31,58
476,034	44,73
476,234	33,38
476,433	40,11
476,633	36,5
476,833	48,53
477,033	32,19
477,232	26,38
477,432	37,68
477,632	34,2
477,831	30,99
478,031	42,27
478,231	43,59
478,43	32,26
478,63	25,58
478,829	13,85
479,029	37,3
479,229	29,94
479,428	35,81
479,628	36,92
479,827	34,59
480,027	35,33
480,226	34,05
480,426	37,34
480,625	42,2
480,825	28,05
481,024	41,63
481,224	30,76
481,423	51,91
481,623	42,52
481,822	39,02
482,021	39,37
482,221	30,59
482,42	39,66
482,62	44,05
482,819	38,32
483,018	33,57
483,218	42,36
483,417	37,12
483,616	41,17
483,816	43,02
484,015	43,43
484,214	47,29
484,414	29,93
484,613	52,85
484,812	33,46
485,011	43,31
485,211	43,31
485,41	36,42
485,609	32,21
485,808	39,61
486,008	32,49
486,207	51,25
486,406	33,14
486,605	50,8
486,804	38,56
487,003	44,39
487,203	42,56
487,402	39,46
487,601	46,98
487,8	43,25
487,999	41,04
488,198	39,22
488,397	43,76
488,596	48,19
488,795	43,5
488,994	34,77
489,193	49,01
489,392	33,29
489,591	57,37
489,79	39,38
489,989	41,43
490,188	51,41
490,387	45,27
490,586	27,84
490,785	56,88
490,984	35,59
491,183	44,01
491,382	45,99
491,581	46
491,779	46,2
491,978	45,33
492,177	43,48
492,376	71,97
492,575	64,78
492,774	78,96
492,972	80,99
493,171	73,67
493,37	68,96
493,569	73,55
493,768	53,55
493,966	47,81
494,165	63,53
494,364	51,46
494,563	50,18
494,761	41,69
494,96	54,36
495,159	55,88
495,357	42,25
495,556	45,91
495,755	65,79
495,953	61,51
496,152	93,41
496,35	113,02
496,549	149,61
496,748	218,34
496,946	302,87
497,145	397,27
497,343	457,47
497,542	530,46
497,74	525,79
497,939	555,55
498,137	486,48
498,336	398,54
498,534	323,16
498,733	258,11
498,931	200,74
499,13	161,25
499,328	139,87
499,527	106,09
499,725	89,02
499,924	73,53
500,122	65,05
500,32	65,17
500,519	55,44
500,717	46,37
500,915	49,03
501,114	50,01
501,312	42,98
501,51	50,44
501,709	41,57
501,907	40,75
502,105	59,76
502,304	32,47
502,502	41,71
502,7	52,98
502,898	33,59
503,097	34,79
503,295	47,06
503,493	37,73
503,691	39,4
503,889	52,97
504,088	38,37
504,286	53,46
504,484	47,64
504,682	49,47
504,88	60,59
505,078	45,94
505,276	45,06
505,474	64,72
505,672	37,61
505,871	54,58
506,069	46,12
506,267	45,06
506,465	65,4
506,663	37,28
506,861	19,33
507,059	52,63
507,257	47,91
507,455	42,23
507,653	58,61
507,851	44,91
508,049	51,56
508,246	59,94
508,444	60,21
508,642	27,25
508,84	53,22
509,038	43,36
509,236	39,61
509,434	59,79
509,632	33,38
509,829	65,36
510,027	46
510,225	63,76
510,423	50,77
510,621	36,24
510,818	52,02
511,016	48,43
511,214	53,85
511,412	56,5
511,609	54,36
511,807	47,94
512,005	47,22
512,203	52,12
512,4	49,88
512,598	46,18
512,796	49,35
512,993	64,31
513,191	55,49
513,389	69,67
513,586	70,54
513,784	89,49
513,981	134,52
514,179	149,07
514,377	170,67
514,574	170,8
514,772	183,98
514,969	185,78
515,167	177,33
515,364	142,57
515,562	128,54
515,759	120,85
515,957	97,41
516,154	81,44
516,352	78,96
516,549	85,99
516,746	66,13
516,944	64,39
517,141	70,44
517,339	64,15
517,536	56,72
517,733	62,45
517,931	44,85
518,128	55,34
518,325	56,5
518,523	66,91
518,72	58,51
518,917	55,7
519,115	56,32
519,312	51,7
519,509	65,95
519,707	55,28
519,904	37,54
520,101	60,37
520,298	62,29
520,495	45,53
520,693	41,69
520,89	64,79
521,087	57,96
521,284	71,18
521,481	53,29
521,678	59,58
521,876	56,87
522,073	57,22
522,27	62,95
522,467	72,29
522,664	53,07
522,861	54,37
523,058	59,01
523,255	46,72
523,452	59,88
523,649	71,74
523,846	68,3
524,043	56,72
524,24	61,32
524,437	54,68
524,634	51,72
524,831	67
525,028	57,26
525,225	50,9
525,422	68,97
525,619	62,31
525,816	60,26
526,013	77,3
526,209	48,58
526,406	43,86
526,603	64,66
526,8	55,94
526,997	66,58
527,194	48,4
527,39	58,98
527,587	53,45
527,784	63,23
527,981	55,54
528,177	46,13
528,374	44,57
528,571	63,55
528,768	57,01
528,964	55,99
529,161	70,8
529,358	62,34
529,554	55,15
529,751	47,2
529,948	65,62
530,144	60,09
530,341	63,85
530,537	64,86
530,734	47,24
530,931	56,69
531,127	58,54
531,324	63,72
531,52	59,93
531,717	59,99
531,913	52,25
532,11	73,8
532,306	61,65
532,503	75,6
532,699	61,6
532,896	60,36
533,092	64,98
533,289	76,69
533,485	63,62
533,682	58,98
533,878	46,94
534,074	57,87
534,271	73,63
534,467	62,8
534,664	65,06
534,86	63,43
535,056	54,79
535,253	63,55
535,449	55,31
535,645	60,52
535,841	57,56
536,038	75,87
536,234	42,14
536,43	49,71
536,626	71,28
536,823	71,26
537,019	61,37
537,215	75,87
537,411	71,32
537,607	65,3
537,804	59
538	55,19
538,196	80,98
538,392	80,06
538,588	60,4
538,784	77,47
538,98	69,52
539,176	73,61
539,373	72,04
539,569	61,17
539,765	59,92
539,961	78,77
540,157	70,13
540,353	69,95
540,549	79,74
540,745	74,62
540,941	74,39
541,137	81,13
541,333	72,95
541,528	69,73
541,724	69,82
541,92	60,64
542,116	80,62
542,312	68,01
542,508	76,99
542,704	72,71
542,9	71,63
543,096	74,94
543,291	74,4
543,487	75,62
543,683	74,44
543,879	80,76
544,075	75,39
544,27	72,04
544,466	71,79
544,662	89,25
544,858	79,53
545,053	71,18
545,249	82,58
545,445	98,27
545,64	67,61
545,836	90,9
546,032	81,35
546,227	82,77
546,423	87
546,619	82,41
546,814	74,21
547,01	81,1
547,205	75,88
547,401	68,43
547,597	85,13
547,792	72,21
547,988	82,13
548,183	91,25
548,379	91,81
548,574	84,97
548,77	84,5
548,965	105,26
549,161	94,4
549,356	89,64
549,552	92,63
549,747	93,39
549,942	80,84
550,138	78,55
550,333	80,54
550,529	103,52
550,724	78,7
550,919	91,41
551,115	113,8
551,31	102,73
551,505	89,44
551,701	100,53
551,896	90,79
552,091	100,64
552,287	78,83
552,482	98,39
552,677	94,94
552,872	82,96
553,067	109,08
553,263	91,8
553,458	103,63
553,653	107,05
553,848	104,85
554,043	106,33
554,239	105,96
554,434	130,59
554,629	108,39
554,824	108,49
555,019	129,03
555,214	110,14
555,409	113
555,604	122,4
555,799	129,32
555,994	116,25
556,189	118,02
556,384	142,07
556,579	145,95
556,774	166,89
556,969	139,6
557,164	168,26
557,359	173,77
557,554	183,67
557,749	207,77
557,944	217,81
558,139	220,3
558,334	226,13
558,529	239,1
558,724	272,9
558,918	272,77
559,113	304,79
559,308	291,1
559,503	331,65
559,698	346,22
559,893	380,59
560,087	380,79
560,282	402,89
560,477	431,46
560,672	427,86
560,866	475,48
561,061	480,01
561,256	503,76
561,45	526,06
561,645	546,3
561,84	571,61
562,034	614,5
562,229	639,02
562,424	673,67
562,618	683,64
562,813	715,97
563,008	732,4
563,202	758,18
563,397	742,3
563,591	767,85
563,786	793,35
563,98	767,01
564,175	822,64
564,369	820,7
564,564	833,88
564,758	843,89
564,953	851,57
565,147	892,11
565,342	877,27
565,536	912,16
565,731	926,86
565,925	976,94
566,119	1060,09
566,314	1177,35
566,508	1356,8
566,703	1695,13
566,897	2223,24
567,091	2842,84
567,286	3613,69
567,48	4675,86
567,674	5536,73
567,868	6308,45
568,063	6502,94
568,257	6646,24
568,451	6509,88
568,646	5543,48
568,84	4665,62
569,034	3866,52
569,228	3224,54
569,422	2754,09
569,616	2421,13
569,811	2206,93
570,005	2037,35
570,199	1910,52
570,393	1777
570,587	1633,24
570,781	1495,74
570,975	1435,15
571,169	1335,67
571,364	1286,58
571,558	1271,76
571,752	1260,05
571,946	1233,73
572,14	1222,9
572,334	1215,95
572,528	1217,13
572,722	1231,85
572,916	1230,15
573,109	1236,44
573,303	1208,06
573,497	1220,41
573,691	1227,6
573,885	1197,72
574,079	1215,1
574,273	1201,25
574,467	1194,34
574,661	1231,56
574,854	1229,68
575,048	1212,26
575,242	1213,33
575,436	1207,3
575,63	1223,12
575,823	1240,1
576,017	1246,65
576,211	1260,34
576,405	1254,11
576,598	1277,89
576,792	1292,39
576,986	1276,61
577,18	1283,77
577,373	1307,89
577,567	1324,54
577,761	1317,47
577,954	1340,94
578,148	1358,7
578,341	1387,34
578,535	1390,79
578,729	1396,45
578,922	1420,82
579,116	1441,35
579,309	1454,22
579,503	1485,26
579,696	1518,14
579,89	1526,58
580,083	1542,22
580,277	1558,07
580,47	1620,48
580,664	1689,51
580,857	1733,04
581,051	1779,12
581,244	1856,92
581,437	1925,49
581,631	2000,51
581,824	2097,88
582,018	2158,92
582,211	2231,33
582,404	2300,09
582,598	2366,76
582,791	2438,9
582,984	2487,22
583,178	2628,82
583,371	2718,94
583,564	2775,89
583,757	2896,66
583,951	2991,01
584,144	3134,31
584,337	3198,14
584,53	3350,94
584,723	3432,23
584,917	3617,92
585,11	3737,64
585,303	4004,94
585,496	4138,68
585,689	4572,92
585,882	4901,43
586,075	5710,29
586,268	7487,54
586,462	13939,97
586,655	25536,34
586,848	47456,4
587,041	62924,99
587,234	63281,69
587,427	64518,59
587,62	64517,62
587,813	64509,36
588,006	64495,02
588,199	64510,68
588,392	64508,83
588,585	64499,38
588,777	64500,7
588,97	64505,72
589,163	64501,36
589,356	64502,42
589,549	64510,28
589,742	64512,26
589,935	64522,37
590,128	64508,5
590,32	64515,9
590,513	64515,57
590,706	64525,01
590,899	64519,8
591,092	64518,28
591,284	64515,5
591,477	64501,63
591,67	64519,07
591,863	64511,47
592,055	64513,19
592,248	64509,49
592,441	64510,41
592,633	64523,76
592,826	64513,78
593,019	64512,33
593,211	64509,42
593,404	64528,12
593,596	64508,89
593,789	64515,7
593,982	64504,4
594,174	64524,62
594,367	64514,31
594,559	64509,42
594,752	64510,08
594,944	64507,64
595,137	64505,2
595,329	64505,33
595,522	64510,02
595,714	64525,01
595,907	64514,05
596,099	64507,57
596,292	64512,26
596,484	64517,42
596,676	64516,82
596,869	64525,41
597,061	64493,7
597,253	64521,71
597,446	64511,87
597,638	64524,82
597,83	64518,08
598,023	64501,17
598,215	64532,68
598,407	64516,82
598,6	64508,3
598,792	64523,03
598,984	64513,52
599,176	64531,16
599,369	64501,36
599,561	64504,01
599,753	64515,44
599,945	64515,83
600,137	64513,59
600,329	64519,53
600,522	64516,56
600,714	64525,87
600,906	64517,68
601,098	64516,23
601,29	64515,7
601,482	64522,11
601,674	64512,33
601,866	64518,61
602,058	64513,52
602,25	64507,97
602,442	64509,95
602,634	64520,06
602,826	64521,58
603,018	64513,92
603,21	64511,74
603,402	64522,31
603,594	64509,62
603,786	64509,29
603,978	64506,71
604,17	64514,97
604,362	64520,19
604,554	64520,52
604,745	64519,2
604,937	64517,09
605,129	64507,31
605,321	64516,49
605,513	64518,8
605,704	64520,65
605,896	64516,69
606,088	64523,76
606,28	64511,14
606,471	64509,23
606,663	64513,39
606,855	64520,65
607,047	64506,19
607,238	64512,2
607,43	64508,43
607,622	64514,64
607,813	64518,94
608,005	64514,38
608,197	64510,94
608,388	64516,56
608,58	64504,14
608,771	64495,95
608,963	64510,15
609,154	64517,81
609,346	64495,88
609,537	64523,69
609,729	64528,71
609,921	64523,69
610,112	64507,24
610,303	64509,03
610,495	64500,97
610,686	64521,38
610,878	64513,32
611,069	64527,99
611,261	64509,36
611,452	64516,56
611,643	64510,28
611,835	64513,26
612,026	64512,73
612,217	64509,42
612,409	64520,98
612,6	64510,68
612,791	64508,63
612,983	64513,26
613,174	64509,29
613,365	58336,33
613,557	36578,07
613,748	32608,99
613,939	32605,96
614,13	32661,97
614,321	24994,9
614,513	7500,67
614,704	1273,35
614,895	1410,61
615,086	1458,57
615,277	1484,96
615,468	1513,31
615,659	1478,67
615,851	1274,35
616,042	1105,56
616,233	945,71
616,424	823
616,615	734,78
616,806	642,25
616,997	550,56
617,188	560,16
617,379	518,17
617,57	457,8
617,761	443,32
617,952	408,99
618,143	380,66
618,334	361,52
618,524	321,98
618,715	301,72
618,906	292,71
619,097	297,45
619,288	293,91
619,479	278,07
619,67	279,3
619,86	250,79
620,051	260,55
620,242	268,51
620,433	250,73
620,624	249,84
620,814	252,22
621,005	254,29
621,196	233,41
621,386	235,58
621,577	241,68
621,768	223,99
621,958	237,5
622,149	234,86
622,34	243,06
622,53	233,95
622,721	231,01
622,912	232,64
623,102	219,98
623,293	225,86
623,483	211
623,674	238,47
623,864	231,27
624,055	238,31
624,245	217,95
624,436	231,14
624,626	208,54
624,817	220,53
625,007	210,4
625,198	194,11
625,388	213,53
625,579	218,86
625,769	214,79
625,959	221,45
626,15	220,7
626,34	191,8
626,531	204,49
626,721	204,07
626,911	197,45
627,101	194,65
627,292	180,97
627,482	190,69
627,672	173,29
627,863	190,07
628,053	177,95
628,243	164,48
628,433	170,32
628,623	178,41
628,814	186,82
629,004	182,88
629,194	172,59
629,384	172,03
629,574	177,71
629,764	184,65
629,955	169,08
630,145	166,78
630,335	173,42
630,525	187,77
630,715	181,4
630,905	163,52
631,095	174,06
631,285	165,01
631,475	172,28
631,665	169,05
631,855	178,56
632,045	148,36
632,235	177,74
632,425	173,99
632,615	151,28
632,805	156,56
632,994	148
633,184	168,08
633,374	150,45
633,564	164,31
633,754	146,09
633,944	182,99
634,133	158,61
634,323	161,88
634,513	158,97
634,703	157,84
634,893	155,82
635,082	161,45
635,272	158,42
635,462	164,29
635,651	148,23
635,841	143,13
636,031	153,13
636,221	146,58
636,41	154,99
636,6	144,59
636,789	155,58
636,979	153,16
637,169	157,54
637,358	155,16
637,548	147,73
637,737	140,61
637,927	155,82
638,116	141,2
638,306	172,67
638,495	138,5
638,685	137,2
638,874	141,23
639,064	145,42
639,253	135,5
639,443	137,63
639,632	151,22
639,822	141,82
640,011	149,24
640,2	155,47
640,39	141,21
640,579	133,85
640,768	139,95
640,958	151,97
641,147	147,67
641,336	154,67
641,526	136,65
641,715	133,09
641,904	140,24
642,093	122,85
642,283	118,23
642,472	140,45
642,661	118,64
642,85	120,96
643,039	122,56
643,228	119,33
643,418	127,01
643,607	134,86
643,796	119,55
643,985	131,64
644,174	137,58
644,363	110,08
644,552	133,45
644,741	108,68
644,93	118,72
645,119	125,9
645,308	107,45
645,497	116,77
645,686	128,72
645,875	123,32
646,064	126,15
646,253	111,48
646,442	118,72
646,631	111,01
646,82	116,18
647,009	101,79
647,198	117,96
647,387	114,01
647,575	112,35
647,764	118,1
647,953	113,33
648,142	128,53
648,331	115,49
648,519	118,69
648,708	106,6
648,897	125,15
649,086	124,6
649,274	117,23
649,463	123,95
649,652	103,01
649,84	106,8
650,029	92,94
650,218	117,44
650,406	116,09
650,595	106,23
650,784	111,82
650,972	103,33
651,161	121,59
651,349	102,39
651,538	118,77
651,726	92,28
651,915	99,95
652,104	101,34
652,292	98,83
652,481	96,81
652,669	96,07
652,857	109
653,046	99,68
653,234	104,24
653,423	104,03
653,611	82,39
653,8	111,25
653,988	100,08
654,176	94,7
654,365	95,02
654,553	99,37
654,741	98,01
654,93	91,57
655,118	87,1
655,306	95,68
655,494	108,43
655,683	72,84
655,871	91,45
656,059	89,74
656,247	89,16
656,436	93,39
656,624	80,34
656,812	105,5
657	88,58
657,188	83,01
657,376	95,2
657,564	76,27
657,753	72,76
657,941	69,72
658,129	90,29
658,317	83,19
658,505	90,16
658,693	71,42
658,881	85,59
659,069	88,82
659,257	89,22
659,445	84,09
659,633	81,37
659,821	94,47
660,009	91,88
660,197	81,47
660,384	87,77
660,572	92,1
660,76	90
660,948	84,49
661,136	79,81
661,324	96,83
661,512	74,69
661,699	79,8
661,887	86,59
662,075	75,12
662,263	81,27
662,451	73,15
662,638	75,45
662,826	79,74
663,014	83
663,201	75,33
663,389	76,81
663,577	68,44
663,764	76,73
663,952	80
664,14	66,87
664,327	75,33
664,515	70,03
664,702	58,36
664,89	86,06
665,078	82,58
665,265	67,35
665,453	55,9
665,64	82,62
665,828	77,19
666,015	86,94
666,203	82,15
666,39	84,76
666,578	80,15
666,765	90,51
666,952	78,16
667,14	78,6
667,327	76,89
667,515	82,29
667,702	97,57
667,889	82,47
668,077	69,88
668,264	86,77
668,451	83,44
668,638	69,76
668,826	57,63
669,013	70,34
669,2	70,08
669,388	72,52
669,575	69,29
669,762	70,04
669,949	55,55
670,136	64,68
670,323	56,03
670,511	69,05
670,698	66,78
670,885	52,98
671,072	68,57
671,259	70,61
671,446	55,82
671,633	61,31
671,82	59,26
672,007	70,59
672,194	57,19
672,381	58,86
672,568	49,08
672,755	61,42
672,942	68,79
673,129	46,31
673,316	65,87
673,503	59,01
673,69	76,12
673,877	71,14
674,064	76,69
674,251	72,7
674,437	79,98
674,624	84,17
674,811	82,77
674,998	58,52
675,185	65,54
675,372	60,97
675,558	80,19
675,745	68,28
675,932	65,74
676,119	71,18
676,305	47,25
676,492	57,89
676,679	68,95
676,865	53,51
677,052	50,04
677,239	59,52
677,425	26,81
677,612	54,07
677,798	52,52
677,985	69,04
678,172	52,92
678,358	38,39
678,545	42,54
678,731	40,79
678,918	66,29
679,104	55,82
679,291	53,35
679,477	43,31
679,664	53,1
679,85	53,45
680,036	43,97
680,223	61,31
680,409	36,39
680,596	44,84
680,782	35,47
680,968	38,04
681,155	48,04
681,341	35,57
681,527	55,26
681,714	47,82
681,9	54,21
682,086	41,06
682,272	48,24
682,459	29,71
682,645	32,92
682,831	44,13
683,017	44,44
683,204	36,22
683,39	35,13
683,576	51,14
683,762	40,95
683,948	45,8
684,134	49,01
684,32	43,33
684,506	46,07
684,693	35,49
684,879	48,33
685,065	31,3
685,251	40,63
685,437	44,32
685,623	51,91
685,809	44,19
685,995	53,02
686,181	58,34
686,366	56,02
686,552	52,12
686,738	52,84
686,924	57,74
687,11	54,78
687,296	67,11
687,482	52,81
687,668	44,65
687,853	43,47
688,039	42,57
688,225	56,43
688,411	38,71
688,597	56,02
688,782	53,36
688,968	39,9
689,154	33,01
689,34	49,17
689,525	53,15
689,711	43,51
689,897	22,32
690,082	42,11
690,268	45,96
690,454	50,93
690,639	53,78
690,825	46
691,01	48,84
691,196	42,42
691,381	22,91
691,567	47,02
691,753	47,12
691,938	43,95
692,124	29,36
692,309	26,52
692,494	26,96
692,68	61,41
692,865	52,63
693,051	43,6
693,236	47,07
693,422	39,28
693,607	37,64
693,792	46,78
693,978	56,33
694,163	95,85
694,348	159,55
694,534	284,51
694,719	471,93
694,904	662,23
695,089	884,88
695,275	1130,17
695,46	1348,15
695,645	1497,52
695,83	1636,52
696,016	1695,3
696,201	1492,19
696,386	1331,86
696,571	1198,84
696,756	1009,72
696,941	827,81
697,126	630,52
697,311	533,65
697,497	432,04
697,682	355,66
697,867	283,99
698,052	227,86
698,237	170,22
698,422	139,97
698,607	109,49
698,792	81,16
698,977	76,24
699,162	47,76
699,347	51,72
699,531	50,55
699,716	42,82
699,901	47,1
700,086	46,26
700,271	46
700,456	31,31
700,641	45,1
700,825	50,66
701,01	40,43
701,195	36,21
701,38	42,47
701,565	55,07
701,749	69,35
701,934	42,48
702,119	58,53
702,303	47,9
702,488	52,24
702,673	39,37
702,857	64,18
703,042	47,18
703,227	37,02
703,411	45,76
703,596	31,04
703,78	37,2
703,965	29,2
704,15	44,26
704,334	63,73
704,519	98,29
704,703	180,89
704,888	281,9
705,072	401,14
705,257	508,56
705,441	669,01
705,625	782,61
705,81	869,43
705,994	955,4
706,179	969,83
706,363	889,21
706,547	803,97
706,732	703,56
706,916	611,57
707,1	477,36
707,285	361,45
707,469	289,48
707,653	232,88
707,837	193,31
708,022	144,72
708,206	117,85
708,39	81,96
708,574	66,65
708,759	64,65
708,943	45,63
709,127	35,97
709,311	51,14
709,495	31,62
709,679	36,68
709,863	30,92
710,047	39,61
710,231	19,16
710,415	31,93
710,6	33,92
710,784	37,77
710,968	24,19
711,152	29,89
711,336	47,87
711,519	28,68
711,703	37,36
711,887	33,67
712,071	33,72
712,255	41,16
712,439	46,91
712,623	43,04
712,807	59,78
712,991	84,31
713,174	93,69
713,358	89,02
713,542	112,02
713,726	132,81
713,91	122,62
714,093	112,12
714,277	139,59
714,461	122,55
714,645	103,73
714,828	95,46
715,012	82,58
715,196	67,68
715,379	60,66
715,563	46,09
715,747	53,64
715,93	32,97
716,114	40,62
716,297	41,64
716,481	37,89
716,664	23,26
716,848	35,72
717,031	45,67
717,215	23,07
717,398	33,43
717,582	32,13
717,765	21,76
717,949	32,91
718,132	34,16
718,316	19,88
718,499	28,88
718,682	27,4
718,866	17,99
719,049	36,7
719,233	38,07
719,416	33,93
719,599	20,69
719,782	32,99
719,966	36,74
720,149	29,55
720,332	20,55
720,515	36,79
720,699	43,06
720,882	42,41
721,065	25,16
721,248	36,47
721,431	27,42
721,615	35,78
721,798	37,24
721,981	26,94
722,164	23,14
722,347	25,87
722,53	33,41
722,713	26,51
722,896	30,44
723,079	28,01
723,262	39,58
723,445	25,55
723,628	16,52
723,811	28,6
723,994	35,27
724,177	49,92
724,36	41,23
724,543	30,09
724,726	33,67
724,909	43,63
725,091	67,36
725,274	83,47
725,457	121,53
725,64	158,05
725,823	203,11
726,006	262,78
726,188	302,65
726,371	348,37
726,554	357,59
726,737	365,85
726,919	324,73
727,102	315,61
727,285	280,48
727,467	231,59
727,65	192,69
727,833	134,95
728,015	94,99
728,198	78,16
728,38	55,39
728,563	50,88
728,746	24,33
728,928	36,19
729,111	28,56
729,293	43,01
729,476	36,31
729,658	50,79
729,841	33,28
730,023	34,36
730,205	36,9
730,388	42,35
730,57	31,42
730,753	35,6
730,935	49,79
731,117	24,79
731,3	33,6
731,482	37,13
731,664	16,86
731,847	23,54
732,029	37,98
732,211	33,77
732,394	21,66
732,576	27,24
732,758	44,65
732,94	33,36
733,122	15,02
733,305	20,86
733,487	30,14
733,669	34,81
733,851	34,77
734,033	50,16
734,215	44,34
734,397	34,84
734,58	40,29
734,762	47,12
734,944	49,09
735,126	36,28
735,308	54,98
735,49	51,52
735,672	50,79
735,854	61,72
736,036	106,44
736,218	202,48
736,399	336,2
736,581	521,83
736,763	670,41
736,945	894,38
737,127	1121,58
737,309	1306,25
737,491	1438,97
737,672	1553,43
737,854	1529,26
738,036	1388,91
738,218	1205,33
738,4	1096,55
738,581	896,84
738,763	695,37
738,945	506,97
739,127	347,78
739,308	234,97
739,49	179,26
739,672	112,02
739,853	80,6
740,035	80,88
740,216	57,96
740,398	65,78
740,58	53,99
740,761	56,81
740,943	39,83
741,124	45,16
741,306	28,88
741,487	38,52
741,669	55,68
741,85	45,2
742,032	46,12
742,213	35,79
742,394	48,56
742,576	44,39
742,757	40,65
742,939	45,08
743,12	41,14
743,301	37,87
743,483	22,02
743,664	35,38
743,845	56,71
744,027	33,47
744,208	33,03
744,389	22,51
744,57	28,66
744,752	40,08
744,933	28,45
745,114	36,3
745,295	29,87
745,476	29,66
745,657	47,22
745,839	37,3
746,02	28,25
746,201	26,61
746,382	40,64
746,563	47,52
746,744	37,81
746,925	52,33
747,106	66,16
747,287	46,93
747,468	40,31
747,649	61,5
747,83	75,09
748,011	94,38
748,192	150,36
748,373	239,22
748,554	413,01
748,735	555
748,915	735,05
749,096	954,7
749,277	1196,89
749,458	1414,01
749,639	1646,1
749,82	1774,41
750	1862,36
750,181	1925,99
750,362	2020,55
750,543	2005,33
750,723	1931,38
750,904	1719,61
751,085	1497,23
751,265	1257,69
751,446	1116,19
751,627	928,77
751,807	725,52
751,988	556,84
752,169	377,43
752,349	269,77
752,53	182,69
752,71	132,86
752,891	105,3
753,071	92,52
753,252	81,39
753,432	68,61
753,613	79,93
753,793	65,14
753,974	51,37
754,154	63,34
754,334	46,89
754,515	47,23
754,695	42,55
754,876	57,17
755,056	60,41
755,236	46,41
755,417	34,09
755,597	38,83
755,777	48,48
755,957	52,12
756,138	32,96
756,318	38
756,498	44,9
756,678	37,14
756,859	57,7
757,039	38,97
757,219	44,32
757,399	41,64
757,579	37,11
757,759	44,57
757,939	51,09
758,119	46,96
758,3	48,3
758,48	48,58
758,66	47,58
758,84	53,07
759,02	26,56
759,2	51,23
759,38	35,91
759,56	47,32
759,74	60,47
759,919	63,19
760,099	58,35
760,279	65,09
760,459	54,25
760,639	64,66
760,819	86,09
760,999	141,89
761,178	348,06
761,358	832,01
761,538	1516,02
761,718	2356,59
761,898	3122,48
762,077	4007,54
762,257	4927,74
762,437	5707,34
762,616	6176,98
762,796	6338,44
762,976	6150,8
763,155	5525,12
763,335	4693,45
763,515	4245,56
763,694	3708,49
763,874	3046,18
764,053	2322,85
764,233	1777,6
764,413	1438,66
764,592	1348,08
764,772	1426,21
764,951	1592,52
765,131	1907,9
765,31	2220,33
765,489	2497,61
765,669	2546,36
765,848	2610,57
766,028	2310,08
766,207	1980,36
766,386	1711,94
766,566	1489,42
766,745	1228,48
766,924	956,25
767,104	694,61
767,283	467,29
767,462	371,85
767,642	331,54
767,821	377,89
768	475,32
768,179	624,8
768,358	796,67
768,538	1011,45
768,717	1235,75
768,896	1367,19
769,075	1473,69
769,254	1462,89
769,433	1298,02
769,612	1078,64
769,791	955,25
769,97	856,62
770,149	851,18
770,328	873,6
770,507	990,35
770,686	1125,96
770,865	1302,68
771,044	1519,31
771,223	1777,01
771,402	1943,24
771,581	2075,2
771,76	2075,1
771,939	1895,18
772,118	1659,23
772,297	1461,66
772,475	1333,7
772,654	1165,13
772,833	962,31
773,012	702,08
773,191	502,65
773,369	353,13
773,548	247,7
773,727	154,45
773,906	132,28
774,084	96,11
774,263	93,07
774,442	87,83
774,62	60
774,799	46
774,977	54,93
775,156	49,18
775,335	52,41
775,513	44,75
775,692	52,11
775,87	26,59
776,049	32,9
776,227	26,64
776,406	32,24
776,584	45,49
776,763	17,3
776,941	35,12
777,119	37,04
777,298	40,23
777,476	31,81
777,655	26,15
777,833	37,74
778,011	32,24
778,19	36,78
778,368	24,98
778,546	32,3
778,725	37,05
778,903	31,87
779,081	51,18
779,259	41,57
779,437	39,81
779,616	42,81
779,794	27,87
779,972	52,72
780,15	37,99
780,328	32,53
780,506	26,36
780,685	39,5
780,863	36,41
781,041	26,36
781,219	51,33
781,397	33,14
781,575	27,74
781,753	24,2
781,931	42,8
782,109	36,02
782,287	20,72
782,465	33,56
782,643	36,61
782,82	30,4
782,998	34,17
783,176	30,74
783,354	16,72
783,532	40,41
783,71	42,16
783,888	15,91
784,065	24,71
784,243	19,15
784,421	27,11
784,599	27,58
784,776	29,86
784,954	32,82
785,132	23,89
785,31	19,89
785,487	28,71
785,665	31,35
785,842	30,49
786,02	38,42
786,198	24,42
786,375	35,05
786,553	19,88
786,73	28,85
786,908	31,8
787,085	26,75
787,263	28,7
787,44	26,39
787,618	32,51
787,795	15,14
787,973	37,13
788,15	16,83
788,328	48,6
788,505	33,97
788,682	35,06
788,86	30,8
789,037	40,24
789,215	35,87
789,392	42,9
789,569	31,71
789,746	31,85
789,924	35,4
790,101	26,53
790,278	31,23
790,455	44,24
790,633	41,13
790,81	39,53
790,987	29,97
791,164	33,58
791,341	36,24
791,518	28,02
791,695	31,8
791,873	43,24
792,05	41,59
792,227	46,12
792,404	67,9
792,581	124,42
792,758	224,29
792,935	351,01
793,112	450,91
793,289	540,35
793,466	680,46
793,643	813,28
793,82	880,63
793,996	954,41
794,173	961,21
794,35	919,47
794,527	863,63
794,704	787,04
794,881	744,39
795,057	676,72
795,234	580,86
795,411	475,06
795,588	350,67
795,765	270,66
795,941	180,91
796,118	132,55
796,295	122,86
796,471	77,9
796,648	73,58
796,825	63,42
797,001	61,41
797,178	58,78
797,354	61,01
797,531	58,44
797,708	61,41
797,884	61,35
798,061	49,36
798,237	80,84
798,414	110,94
798,59	169,39
798,767	225,41
798,943	290,99
799,119	386,02
799,296	500,76
799,472	669,2
799,649	851,59
799,825	979,89
800,001	1031,46
800,178	1127,06
800,354	1248,74
800,53	1286,49
800,707	1303,81
800,883	1235,75
801,059	1154,99
801,235	1053,77
801,411	931,25
801,588	836,79
801,764	746,22
801,94	628,27
802,116	511,5
802,292	380,31
802,468	292,59
802,645	200,35
802,821	148,13
802,997	125,59
803,173	76,82
803,349	77,86
803,525	92,76
803,701	66,69
803,877	44,04
804,053	64,93
804,229	57,29
804,405	63,5
804,581	61,59
804,756	48,06
804,932	59,9
805,108	44,02
805,284	46,33
805,46	52,26
805,636	56,26
805,812	54,15
805,987	40,8
806,163	53,58
806,339	58,38
806,515	41,55
806,69	58,28
806,866	31,65
807,042	56,21
807,217	46,56
807,393	60,82
807,569	72,51
807,744	60,92
807,92	92,97
808,096	150,3
808,271	247,96
808,447	356,33
808,622	494,08
808,798	598,05
808,973	781,47
809,149	1047,72
809,324	1366,93
809,5	1823,73
809,675	2230,86
809,851	2558,37
810,026	2835,4
810,201	3247,05
810,377	3605,34
810,552	3926,21
810,728	4055,28
810,903	4008,98
811,078	3784,14
811,253	3568,41
811,429	3290,76
811,604	3092,89
811,779	2832,26
811,955	2523,05
812,13	2091,23
812,305	1612,98
812,48	1178,48
812,655	807,61
812,83	554,4
813,006	378,56
813,181	282,12
813,356	209,84
813,531	171,67
813,706	143,7
813,881	116,65
814,056	115,03
814,231	92,21
814,406	93,8
814,581	103,52
814,756	96,97
814,931	88,22
815,106	81,74
815,281	108,73
815,456	100,53
815,631	124,14
815,805	202,01
815,98	348,09
816,155	661,83
816,33	1076,84
816,505	1572,44
816,68	2042,26
816,854	2639,16
817,029	3482,9
817,204	4587,13
817,379	5714,91
817,553	7026,56
817,728	7865,02
817,903	8539,04
818,077	9328,18
818,252	10258,47
818,427	11068,97
818,601	11696,33
818,776	11825,48
818,95	11196,57
819,125	10183,41
819,299	9269,05
819,474	8206,02
819,648	7454,14
819,823	6473,97
819,997	5542,13
820,172	4305,69
820,346	3236,9
820,521	2262,69
820,695	1529,22
820,87	1072,27
821,044	739,56
821,218	549,32
821,393	417,27
821,567	316,46
821,741	269,41
821,916	208,16
822,09	185,2
822,264	178,48
822,438	158
822,613	141,89
822,787	123,06
822,961	116,99
823,135	126,9
823,309	101,1
823,483	106,93
823,658	87,97
823,832	102,29
824,006	109,29
824,18	131,84
824,354	178,65
824,528	243,41
824,702	288,65
824,876	319,51
825,05	391,45
825,224	476,62
825,398	531,46
825,572	579,74
825,746	611,58
825,92	628,47
826,093	632,38
826,267	612,77
826,441	609,41
826,615	602,49
826,789	562,5
826,963	494,32
827,136	422,21
827,31	332,58
827,484	262,97
827,658	168,41
827,831	132,22
828,005	116,27
828,179	83,96
828,353	71,39
828,526	67,61
828,7	65,62
828,873	53,93
829,047	46,98
829,221	44,28
829,394	41,05
829,568	40,82
829,741	41,98
829,915	34,03
830,088	47,15
830,262	38,49
830,435	26,03
830,609	37,47
830,782	46,29
830,956	34,15
831,129	30,53
831,302	43,56
831,476	30,43
831,649	26,02
831,822	25,43
831,996	37,04
832,169	22,1
832,342	37,89
832,516	15,81
832,689	24,64
832,862	30,17
833,035	38,43
833,209	17,26
833,382	29,85
833,555	29,03
833,728	15,47
833,901	8,89
834,074	25,85
834,247	18,04
834,42	18,02
834,594	39,33
834,767	13,97
834,94	18,09
835,113	16,15
835,286	14,82
835,459	25,14
835,632	12,64
835,805	2,8
835,977	13,64
836,15	20,75
836,323	14,85
836,496	20,01
836,669	24,1
836,842	14,19
837,015	25,7
837,188	27,24
837,36	34,11
837,533	21,71
837,706	26,03
837,879	13,05
838,051	27,14
838,224	41,56
838,397	57,09
838,569	67,47
838,742	121,87
838,915	194,45
839,087	245,89
839,26	295,37
839,433	389,7
839,605	473,21
839,778	538,33
839,95	631,62
840,123	714,87
840,295	794,47
840,468	889,3
840,64	957,37
840,813	1054,14
840,985	1140,67
841,158	1215,44
841,33	1279,26
841,502	1277,66
841,675	1285,19
841,847	1244,1
842,019	1171,24
842,192	1145,23
842,364	1089,7
842,536	1036,63
842,709	992,3
842,881	932,75
843,053	845,4
843,225	721,34
843,398	534,01
843,57	393,85
843,742	275,68
843,914	189,07
844,086	144,47
844,258	111,05
844,43	71,48
844,602	57,82
844,775	51,72
844,947	34,8
845,119	36,97
845,291	50,73
845,463	40,82
845,635	42,73
845,807	59,35
845,979	24,89
846,15	28,65
846,322	32,48
846,494	24,73
846,666	24,9
846,838	17,55
847,01	21,91
847,182	17,94
847,354	19,4
847,525	38,28
847,697	31,74
847,869	8,64
848,041	20,4
848,212	25,94
848,384	7,57
848,556	14,38
848,727	23,16
848,899	27,61
849,071	28,05
849,242	8,25
849,414	26,21
849,585	12,06
849,757	24,23
849,929	44,4
850,1	37,73
850,272	78,17
850,443	94,87
850,615	122,18
850,786	130,92
850,958	158,52
851,129	192,01
851,3	219,41
851,472	243,49
851,643	239,31
851,815	256,4
851,986	250,15
852,157	267,44
852,329	247,6
852,5	261,13
852,671	231,82
852,842	217,86
853,014	174,88
853,185	162,49
853,356	101,03
853,527	65,85
853,698	59,7
853,87	43,15
854,041	24,6
854,212	28,03
854,383	16,47
854,554	5,51
854,725	28,83
854,896	16,89
855,067	24,96
855,238	16,24
855,409	27,01
855,58	14,03
855,751	14,73
855,922	14,13
856,093	20,04
856,264	21,75
856,435	17,03
856,606	22,97
856,777	7,26
856,948	6,38
857,118	34,07
857,289	27,5
857,46	25,16
857,631	30,91
857,802	17,16
857,972	14,3
858,143	24,37
858,314	21,79
858,484	15,48
858,655	18,85
858,826	30,95
858,996	26,54
859,167	16,8
859,338	12,91
859,508	15,58
859,679	25,56
859,849	20,54
860,02	28,52
860,19	29,09
860,361	14,33
860,531	6,31
860,702	14,95
860,872	20,34
861,043	15,14
861,213	14,44
861,384	7,84
861,554	9,01
861,724	-14,27
861,895	18,73
862,065	8,84
862,235	11,87
862,406	8,51
862,576	13,61
862,746	17,7
862,916	12,1
863,087	14,16
863,257	-4,18
863,427	0,49
863,597	15,07
863,767	31,72
863,937	20,71
864,108	-1,7
864,278	26,09
864,448	39,48
864,618	18,86
864,788	15,93
864,958	24,42
865,128	22,09
865,298	41,24
865,468	32,93
865,638	38,57
865,808	38,29
865,978	36,07
866,148	37,78
866,318	58,22
866,487	56,34
866,657	48,66
866,827	60,33
866,997	57,8
867,167	62,87
867,337	72,79
867,506	60,18
867,676	53,53
867,846	39,06
868,016	30,3
868,185	37,07
868,355	26,71
868,525	32
868,694	15,51
868,864	17,04
869,034	12,96
869,203	17,36
869,373	12,93
869,542	16,77
869,712	21,87
869,881	-1,44
870,051	18,27
870,22	9,27
870,39	31,44
870,559	20,64
870,729	17,93
870,898	3,33
871,068	21,5
871,237	3,5
871,406	23,64
871,576	5,01
871,745	22,69
871,914	21,23
872,084	9,62
872,253	22,05
872,422	7,53
872,591	13,78
872,761	7,83
872,93	31,51
873,099	7,41
873,268	17,82
873,437	15,94
873,607	17
873,776	24,46
873,945	29,74
874,114	18,9
874,283	17,94
874,452	20,94
874,621	8,46
874,79	23,75
874,959	18,61
875,128	21,14
875,297	20,72
875,466	1,87
875,635	17,8
875,804	5,21
875,973	21,51
876,142	6,93
876,31	21,55
876,479	14,73
876,648	12,88
876,817	11,13
876,986	19,3
877,155	3,86
877,323	11,19
877,492	21,8
877,661	-2,29
877,829	7,18
877,998	17,94
878,167	25,89
878,335	12,97
878,504	10,24
878,673	19,68
878,841	10,27
879,01	20,25
879,178	2,72
879,347	21,29
879,515	7,68
879,684	12,08
879,852	2,57
880,021	2,71
880,189	5,39
880,358	9,81
880,526	11,94
880,695	14,89
880,863	14,38
881,031	19,74
881,2	22,47
881,368	26,81
881,536	20,39
881,705	10,08
881,873	26,64
882,041	10,98
882,21	15,25
882,378	25,67
882,546	13,59
882,714	11,67
882,882	16,77
883,05	19,34
883,219	22,76
883,387	3,91
883,555	9,7
883,723	4,87
883,891	9,77
884,059	13,75
884,227	11,13
884,395	7,43
884,563	9,68
884,731	4,97
884,899	3,39
885,067	-2,06
885,235	12,7
885,403	19,36
885,571	29,06
885,739	13,11
